### header ###
fiducial parameters:
Omega_m = 0.31
Omega_nu = 0
Omega_de = 0.69
Omega_k = 0
H_0 = 100
w_de = -1
zeff = 0
beta = 0
fgrowth = 0
b_1 = 2
gamma = 0.55
Lx = 3500 Ly = 3500 Lz = 3500
nx = 700 ny = 700 nz = 700
xoffset = 1383.5 yoffset = 32.0583 zoffset = 357.098
bins = 400 dk = 0.001
kx_ny = 0.628319 ky_ny = 0.628319 kz_ny = 0.628319
############################
A(data) = 3.31561 (not used)
A(ran) = 3.31569 (used)
Ngal = 158267
weighted Ngal = 0
Nran = 8008456
weighted Nran = 0
SN(data) = 7724.91
SN(ran) = 131.652
SN(data+ran) = 7856.56
############################
13 columns: k_central k_mean P_0(k) sigma^{lin}_{P_0(k)} P^img_1(k) sigma^{lin}_{P_1(k)} P_2(k) sigma^{lin}_{P_2(k)} P^img_3(k) sigma^{lin}_{P_3(k)} P_4(k) sigma^{lin}_{P_4(k)} N_modes
### header ###
0.0005 0 0 0 0 0 0 0 0 0 0 0 0
0.0015 0.0017952 20291.7 23617.8 -24082.7 28207.2 -44280.2 44859.4 49161.6 54934.7 15256.3 60815.7 3
0.0025 0.00253879 29900 14566.1 -14893.1 30147.1 3296.78 37345.5 -55099.8 45492.4 -22068.1 47692.6 6
0.0035 0.00331552 36672.7 10790.8 66.5679 13147.9 -29132.3 21470.1 -14739.3 24620.2 6111.81 27801.4 7
0.0045 0.00420575 38934.7 8581.3 2767.74 14086.5 -5902.58 18819.2 -25974.2 22261.6 2595.68 24455.4 24
0.0055 0.00557378 32769.4 5873.3 4355.13 10934.7 6621.15 14059.2 -17962.9 16351.5 3308.4 17808.3 45
0.0065 0.00659388 42584.5 6698.65 -6269.37 13575.4 23411.8 14211 7180.97 17344.7 -31197.9 20225.5 40
0.0075 0.00754703 41784.6 5573 -12523.2 9097.14 -8165.18 10263.8 17027.2 13311.8 -19412.1 15227.5 57
0.0085 0.00846663 69519 8043.98 -18318.7 14215.8 364.163 15951.2 -3635.12 19945.4 -32959.2 22827.1 75
0.0095 0.00948925 82021.8 8419.1 -12377.6 14433.4 -6128.51 16974 -20133 20955.5 -29153.3 23738.6 112
0.0105 0.0105443 101909 9446.74 -493.155 15577.8 -16371.6 18082.5 -16990.6 22803.1 -41194.4 26038.6 105
0.0115 0.0114567 93757.7 8019.74 5010.41 14539 10680.3 16189.6 -35241.6 20212.8 -44724.7 23052.5 144
0.0125 0.0124909 90178.4 7133.19 14398.8 13559.2 25226.4 14923.9 -21495.2 18332 -44307 20964.8 169
0.0135 0.0133993 76179.5 5789.71 12655.4 12341.4 55710.9 14178.9 -20524.7 16486.8 -28113.9 18409.9 180
0.0145 0.0144887 61163.8 4397.26 8150.37 9752.86 55134.9 11432.1 1242.71 13043.4 -19340.8 14427.3 267
0.0155 0.0155005 62525.6 4284.29 801.643 9364.18 56862 10387.3 19078.2 12053.7 -38869.2 13712.2 238
0.0165 0.0165335 57583.5 3576.34 -1865.73 7837.61 45760.2 9563.38 19120.9 10888.9 -4768.14 11816.8 315
0.0175 0.0174787 63214.2 3629.16 -948.096 7698.4 40313.2 9492.61 22109.4 10855.5 -1744.16 11779.2 297
0.0185 0.0184418 62714.6 3395.28 691.178 7232.8 36521.1 9836.12 7527.28 10939.4 33629.1 11538 388
0.0195 0.0194759 54500.9 2728.66 845.653 5330.33 17794.5 6856.14 17794.6 7846.99 6766.99 8517.53 399
0.0205 0.0204543 65194.9 3121.67 -2312.37 6218.25 24142.5 8485.64 11110.2 9481.32 29652.2 10122 462
0.0215 0.0215477 60680.5 2740.87 -1212.23 5215.29 14597.3 7161.42 1594.37 8014.86 25102.5 8628.61 571
0.0225 0.0225534 60415 2588.43 1987.41 4840.23 12256.9 6343.54 553.993 7238.84 10302.6 7901.37 510
0.0235 0.0234893 59410.4 2439.44 -948.749 4564.17 12007.1 6060.99 -3606.83 6881.63 13608.4 7486.91 555
0.0245 0.0243964 63669.1 2499.67 -583.927 4506.15 6797.13 5535.67 599.848 6547.16 -7893.5 7307.81 592
0.0255 0.025473 61693.5 2333.41 1267.27 4318.82 11188.4 5308.36 -7270.63 6237.66 -6257.81 6930.82 837
0.0265 0.026529 60805.1 2234.88 2396.67 4197.56 13996.5 4835.82 -11030.7 5832.31 -20449.1 6586.37 723
0.0275 0.0274997 58094 2050.8 1050.05 3839.06 12692.3 4434.89 -44.2049 5340.68 -18980.3 6034.2 826
0.0285 0.0284809 57051.5 1946.53 -635.89 3653.06 12954.2 4181.48 811.952 5053.2 -20495.4 5723.88 831
0.0295 0.029469 56735.8 1868.61 -1706.75 3451.77 10055.8 3938.56 4260.82 4793.65 -21267.4 5442.75 996
0.0305 0.0305325 58904.7 1866.65 952.232 3342.94 4917.71 3906.42 3963.83 4747 -18158.9 5372.02 1041
0.0315 0.0315051 56119.3 1735.07 2905.04 3175.33 8286.33 3564.9 -5915.86 4390.58 -24326.2 5012.17 1036
0.0325 0.0324619 53725.5 1591.47 981.698 2845.06 4426.02 3442.54 592.206 4111.24 -9988.02 4612.22 1059
0.0335 0.0334508 50462.5 1465.71 2433.58 2728.26 10129.6 3096.48 -885.759 3767.89 -19764.4 4282.44 1302
0.0345 0.034512 47222.4 1329.38 3356.52 2446.12 7827.04 2808.38 -4523.51 3412.69 -16661.9 3868.77 1339
0.0355 0.0355335 43217.5 1192.39 3032.28 2312.08 14472.2 2633.97 659.748 3156.14 -16157 3569.1 1365
0.0365 0.0364712 37564.9 1004.83 2512.94 1946.12 12358.1 2259.41 -2030.62 2686.95 -11225.2 3019.34 1308
0.0375 0.0374489 36610.9 958.803 1029.74 1890.32 14337.1 2170.62 3518.33 2579.63 -12634.4 2904.03 1579
0.0385 0.0384753 36517.8 926.361 304.289 1818.09 13530.6 2136.89 1183.99 2518.8 -9114.39 2814.79 1662
0.0395 0.0395024 35950 884.82 395.825 1704.06 11033.4 2011.33 -345.079 2378.97 -8517.65 2661.09 1683
0.0405 0.0405035 36355.1 875.239 380.603 1719.25 13447.6 2048.11 -12.7291 2400.89 -7066.18 2670.84 1822
0.0415 0.0415245 35429.8 832.059 -316.078 1649.28 13913.2 2012.82 -876.335 2333.4 -3182.86 2572.24 1887
0.0425 0.0425015 38052.8 872.709 -721.299 1709.74 13704.8 2046.94 4098.9 2397.52 -6656.39 2662.89 1920
0.0435 0.0434921 37247.1 833.172 -535.363 1645.97 13929.5 2061.63 4101.05 2370.47 820.768 2592.88 2005
0.0445 0.0444852 37964 823.755 862.466 1566.73 9695.17 1986.41 1991.59 2289.41 1697.21 2512.25 2151
0.0455 0.0454803 35973.8 772.849 1659.1 1554.16 14771.2 2049.28 -263.081 2309.48 10193.4 2482.92 2274
0.0465 0.0464867 34469.3 725.093 2077.67 1463.89 14649.6 1913.41 1763.13 2161.13 8326.21 2327.07 2311
0.0475 0.0474925 31620.3 660.845 1333.71 1384.03 16730.7 1865.88 2012.34 2081.46 14433.7 2207.77 2568
0.0485 0.0485184 30521.2 618.703 2.62447 1250.29 12590.1 1701.92 2748.82 1899.36 14049.5 2023.99 2493
0.0495 0.0494948 31198 627.105 31.6877 1310.07 16019.1 1793.15 2818.61 1993.33 17032.1 2107.55 2644
0.0505 0.0505063 29830.7 579.572 13.0668 1158.7 11276.1 1588.31 552.938 1770.18 14405.7 1887.73 2829
0.0515 0.0514906 31203.9 595.274 -363.949 1195.83 12267.5 1635.68 2600.6 1823.76 14942.5 1943.65 2784
0.0525 0.052493 31533.1 582.067 -1249.93 1105.06 7503.5 1497.07 1446.44 1683.93 10846.5 1818.8 3055
0.0535 0.0534895 32884.9 596.171 -207.866 1140.94 8531.77 1545.1 283.42 1736.34 11596.2 1872.7 3009
0.0545 0.0544861 32286.2 574.054 969.266 1103.25 8924.93 1464.35 -2574.67 1656.66 8463.37 1793.26 3336
0.0555 0.0555087 31089.3 542.655 868.583 1052.2 9615.69 1354.79 -1849.66 1547.17 4077.68 1684.98 3349
0.0565 0.0564767 30571.5 530.63 1574.25 1082.37 14322.5 1389.83 -2191.8 1576.4 5034.73 1702.57 3324
0.0575 0.0574797 29175 493.517 345.035 977.114 11069.7 1229.09 -1079.41 1410.04 1251.29 1540.22 3639
0.0585 0.0584928 28884.6 485.316 -26.6353 997.461 14573.3 1251.75 1894.67 1427.88 1592.92 1551.12 3846
0.0595 0.0595102 29105.1 477.758 -104.701 961.979 12648.3 1207.55 685.787 1382.08 1296.18 1506.44 3787
0.0605 0.0604947 29012.4 469.866 -21.8975 954.736 13636.2 1185.13 720.764 1359.11 -71.8484 1484.44 3930
0.0615 0.0614831 28720.7 456.105 1083.23 917.843 12406.8 1153.58 -246.585 1319.9 1440.84 1438.26 4083
0.0625 0.062491 28019 437.968 260.846 881.611 12227.6 1099.09 -575.108 1260.86 354.452 1377.3 4303
0.0635 0.063506 28116.7 435.557 21.5626 898.265 14454.2 1132.65 1397.08 1289.38 2265.5 1397.81 4470
0.0645 0.0645175 27744.9 419.666 120.648 841.204 11641 1056.02 1256.05 1209.64 1158.82 1319.39 4479
0.0655 0.0655028 27427.3 408.409 317.599 818.474 11449.7 1031.53 360.802 1180.02 1643.82 1285.65 4636
0.0665 0.0664888 26930.7 394.498 16.0409 785.516 10758.7 982.139 988.82 1127.9 518.192 1233.11 4653
0.0675 0.0674966 26696.4 384.383 394.286 755.762 9678.05 934.453 -407.365 1080.02 -998.228 1187.21 5220
0.0685 0.0685273 26359.4 374.236 437.838 740.83 9976.86 932.472 261.095 1069.49 1198.72 1168.09 5029
0.0695 0.0694932 25157.3 351.659 412.204 685.858 8578.84 833.851 520.287 971.552 -2848.2 1074.85 5040
0.0705 0.0704803 25639.9 353.327 73.9566 695.313 9277.69 869.669 850.059 1000.82 337.826 1096.18 5475
0.0715 0.0714879 24820.3 336.054 374.695 640.844 6724.61 776.541 1158.83 910.907 -3432.96 1012.05 5509
0.0725 0.0724982 24527.6 328.864 703.919 645.971 8840.74 796.367 -1000.29 921.649 -1231.75 1014.14 5916
0.0735 0.0735127 22810.6 302.099 631.52 595.846 8573.06 728.894 -507.324 845.184 -1860.18 931.684 5721
0.0745 0.0744914 22911.9 301.537 463.79 609.503 10584.3 739.414 -764.275 855.329 -2492.54 942.041 6028
0.0755 0.0754916 22314.2 288.596 118.498 574.025 9101.69 693.237 -390.18 806.071 -2977.99 891.164 6183
0.0765 0.0764884 22207.7 285.568 452.27 581.003 10872.9 697.574 457.176 808.517 -3423.5 892.905 6330
0.0775 0.0774996 21896.7 276.751 284.876 560.501 10119.1 690.12 595.119 794.028 -912.322 869.988 6583
0.0785 0.0784865 21845 273.116 129.936 556.065 10522.5 682.961 1201.35 785.652 -1118.16 860.79 6549
0.0795 0.0794732 21283.9 261.405 185.29 523.806 8999.42 649.687 1642.26 747.355 -296.987 818.184 6828
0.0805 0.0804811 20795.2 252.42 459.09 509.136 9120.96 641.119 807.871 732.82 1245.02 797.747 7147
0.0815 0.0814996 20131.7 240.434 235.728 477.903 7842.21 604.738 691.884 691.854 1458.62 753.918 7386
0.0825 0.0825061 20373 241.282 165.986 487.175 8878.67 623.285 549.506 708.687 2783.24 767.702 7227
0.0835 0.0835016 19544.9 227.713 575.57 451.629 7402.7 577.956 277.545 658.919 2401.18 715.997 7798
0.0845 0.0844961 18852.6 217.614 284.889 435.93 7631.47 566.068 278.732 641.327 3806.6 692.812 7371
0.0855 0.0854894 18451.9 210.261 274.49 419.773 7408.69 534.228 448.078 609.551 1889.85 662.631 8256
0.0865 0.086507 18062.9 203.453 546.834 406.089 7198.19 520.131 -14.1374 592.226 2395.72 642.645 8037
0.0875 0.0874906 17223.5 192.271 315.285 387.529 7499.78 489.387 -166.551 558.92 1263.95 607.999 8155
0.0885 0.0884921 17295.7 191.52 119.443 390.822 8118.61 501.478 150.686 568.769 2763.64 614.463 8718
0.0895 0.089499 16248 177.14 271.688 355.073 6838.31 444.118 475.639 509.326 404.574 556.177 8571
0.0905 0.0904919 16821.6 181.2 -10.4435 362.432 6908.92 457.46 404.356 523.234 1102.72 569.997 8932
0.0915 0.0915083 16388.2 173.678 -117.719 338.136 5406.24 420.814 606.214 486.193 -255.018 534.233 9285
0.0925 0.0925082 16627.1 174.113 -29.6304 337.586 5233.17 424.325 746.077 488.843 400.56 535.962 9204
0.0935 0.0935033 16584.3 171.384 -144.028 327.222 4457.46 411.6 829.622 475.497 254.373 522.561 9349
0.0945 0.0944804 16595.8 169.033 -89.7568 312.842 2969.07 396.654 768.721 459.68 345.842 506.778 9564
0.0955 0.0954927 16549.4 166.84 195.997 309.935 3116.1 395.575 688.4 456.806 843.588 502.451 10155
0.0965 0.0964943 16163 161.315 261.023 300.577 3178.37 385.095 -708.255 443.752 1136.24 487.361 9913
0.0975 0.0974914 15956.7 157.771 442.788 296.634 3535.38 379.257 228.528 436.599 1117.93 479.025 10476
0.0985 0.0985024 15340 150.722 270.606 291.037 4580.33 372.219 -675.714 426.39 1485.32 465.573 10575
0.0995 0.0995033 15372.5 149.367 157.655 286.801 4334.44 366.893 -420.531 420.648 1423.28 459.744 10882
0.1005 0.100512 15253.8 147.384 327.407 289.31 5397.35 362.215 -400.483 416.888 247.035 456.667 10875
0.1015 0.101503 15115.2 144.829 175.896 286.618 5695.79 361.893 -688.303 414.67 900.832 452.481 11118
0.1025 0.102508 14911.6 141.835 139.622 283.602 6138.33 356.066 -317.867 408.01 610.983 445.21 11575
0.1035 0.103498 14727.2 138.88 164.034 278.267 6225.75 345.316 -100.567 397.097 -160.408 434.721 11364
0.1045 0.104501 14678.1 137.157 106.309 275.087 6262.11 340.692 600.109 391.986 -288.29 429.314 12093
0.1055 0.10551 14537.1 134.52 109.488 270.155 6215.73 337.649 390.838 387.188 330.189 422.771 12067
0.1065 0.106497 14218.1 129.828 121.795 256.726 5337.41 322.701 702.834 370.393 545.01 404.753 12054
0.1075 0.107499 14058.3 127.3 48.2652 253.044 5468.25 320.979 719.208 366.929 1176.01 399.545 12807
0.1085 0.108501 13776 123.332 168.637 242.924 4969.04 307.769 350.453 352.51 979.593 384.599 12736
0.1095 0.109503 13632.7 120.944 292.555 238.341 4912.64 303.988 -104.428 347.335 1392.9 378.204 12933
0.1105 0.110502 13330.1 117.17 185.197 230.689 4799.46 291.725 67.9552 334.371 833.827 365.035 13428
0.1115 0.111509 13095.7 114.206 -36.8247 226.118 4904.04 288.724 266.521 329.515 1456.23 358.389 13453
0.1125 0.1125 13368.5 115.025 74.2444 222.424 4085.68 280.796 204.682 323.11 547.259 353.994 13668
0.1135 0.113491 13101.7 112.081 113.769 220.32 4654.26 278.536 130.304 319.376 787.029 348.786 13791
0.1145 0.114486 12723.8 107.829 295.766 211.251 4382.08 267.522 -76.8744 306.747 829.145 335.025 14205
0.1155 0.115493 12716.2 106.877 94.1905 209.95 4442.26 268.892 140.188 306.953 1504.21 334.033 14776
0.1165 0.116498 12491.6 104.193 141.211 205.452 4574.82 258.552 246.294 296.777 522.185 324.365 14553
0.1175 0.117473 12217.1 100.879 222.695 197.473 4189.51 249.208 -154.127 286.147 599.772 312.878 14568
0.1185 0.118491 11883.1 97.5067 204.335 192.909 4454.27 244.332 -282.828 279.665 874.029 304.916 16015
0.1195 0.119503 11799.1 95.7064 54.006 186.177 3849.84 232.605 94.9145 268.385 6.70434 294.618 15270
0.1205 0.120507 11826.3 95.2025 -79.0796 185.421 3921.74 230.237 701.287 266.231 -296.9 292.699 15999
0.1215 0.1215 11883.6 94.4851 -217.42 179.618 3059.45 224.24 735.505 260.069 -227.348 286.602 15670
0.1225 0.122507 12105.7 95.2225 -161.994 177.994 2513.37 223.875 357.189 259.76 -30.1987 286.503 16887
0.1235 0.123522 12173.7 94.8483 157.702 174.258 1939.9 217.654 184.065 254.269 -550.882 281.763 16407
0.1245 0.124498 11920.6 92.1561 221.717 170.318 2092.22 214.724 -345.162 249.507 -35.6952 275.548 16306
0.1255 0.125499 11733 90.1188 118.854 168.848 2521.28 211.132 -152.434 245.44 -284.5 271.033 17523
0.1265 0.126501 11491.8 87.7966 256.516 167.27 3045.49 207.321 -284.239 241.002 -542.203 266.057 17154
0.1275 0.127506 11263.8 85.3716 180.064 162.512 2959.05 201.138 -230.516 233.99 -604.637 258.457 18007
0.1285 0.128503 11142.9 83.9946 260.863 161.902 3358.55 199.575 -512.454 231.921 -688.862 255.953 17496
0.1295 0.129499 10805.8 81.2133 359.728 159.719 3970.55 194.952 -633.766 226.408 -993.436 249.84 18405
0.1305 0.13049 10304.5 77.2314 317.028 155.046 4492.43 189.141 -303.409 218.7 -887.811 240.663 18100
0.1315 0.131488 10113.6 75.208 3.8806 150.724 4363.71 183.11 308.626 212.108 -1065.88 233.787 19059
0.1325 0.132493 10530.2 77.6125 -320.38 154.499 4311.32 187.47 604.704 217.597 -1183.11 240.147 18957
0.1335 0.133491 10604.7 77.1356 -236.77 150.02 3514.51 183.327 825.677 213.363 -984.428 235.737 19468
0.1345 0.134507 10811.3 77.7778 14.2645 148.904 3038.69 182.915 354.136 213.167 -873.404 235.752 19953
0.1355 0.13551 10833.4 77.2374 99.9782 146.88 2809.02 182.192 -30.1453 211.804 -492.966 233.845 19956
0.1365 0.136499 10587.9 74.9375 103.581 142.685 2779.76 177.492 23.4658 206.049 -349.511 227.264 19723
0.1375 0.137496 10401.7 73.3154 301.386 142.131 3301.1 176.265 -15.6005 204.089 -345.672 224.647 20946
0.1385 0.138511 10215.6 71.3873 133.063 137.755 3075.74 172.629 -30.2445 199.275 78.993 218.854 20955
0.1395 0.139498 10064.4 69.9949 48.5675 136.776 3421.8 170.99 303.637 197.078 62.7587 216.138 20506
0.1405 0.140483 10055 69.2782 83.7687 134.044 3083.45 169.774 105.033 195.098 558.939 213.531 21447
0.1415 0.141484 9928.99 67.9373 -25.1946 131.428 3053.04 165.56 369.508 190.655 316.632 208.984 21771
0.1425 0.142494 10086.7 68.4041 -11.8524 130.968 2773.96 166.373 269.256 191.354 600.503 209.638 22470
0.1435 0.143509 9841.19 66.2682 218.861 126.594 2661.29 159.208 -216.067 183.904 149.398 202.109 22519
0.1445 0.144499 9788.72 65.6589 325.65 127.721 3153.08 162.341 -455.718 186.149 746.912 203.336 22218
0.1455 0.145505 9192.21 61.322 185.276 120.18 3193.52 151.266 -339.133 173.822 353.796 190.161 23559
0.1465 0.146507 9255.84 61.4004 39.3046 121.139 3393.91 153.097 375.385 175.459 566.775 191.509 23044
0.1475 0.147505 9299.58 61.3861 -67.4603 122.063 3660.67 153.287 88.835 175.809 356.094 192.004 23649
0.1485 0.148499 9269.6 60.6326 145.542 119.216 3324.66 149.298 192.262 171.76 167.819 188.085 23640
0.1495 0.149495 9162.56 59.6841 98.0299 118.861 3632.64 150.16 -48.5055 171.825 610.547 187.272 24457
0.1505 0.1505 8985.06 58.0372 151.46 114.657 3332.92 144.967 -273.575 166.075 580.137 181.205 24591
0.1515 0.151499 8878.98 57.1022 101.882 113.874 3575.9 143.045 126.703 163.96 368.178 178.961 25020
0.1525 0.152505 8861.5 56.5793 82.4477 112.585 3492.88 142.058 194.559 162.647 534.311 177.355 25297
0.1535 0.153501 8657.8 54.7158 -95.6697 106.849 2908.19 134.714 594.41 154.828 372.011 169.388 25452
0.1545 0.154504 8875.76 55.7155 49.5005 108.915 2981.96 138.801 165.723 158.857 812.092 173.258 26061
0.1555 0.155499 8521.34 53.1059 261.502 103.145 2732.65 129.234 -59.7763 149.002 101.292 163.473 26128
0.1565 0.156495 8342.76 51.7122 174.028 101.14 2823.87 128.511 -224.661 147.225 658.214 160.689 26331
0.1575 0.157497 8055.3 49.6651 74.0866 97.5925 2866.49 122.667 35.8555 140.952 274.239 154.2 27345
0.1585 0.158499 8169.62 49.9977 91.3106 97.7502 2771.46 123.261 131.331 141.604 362.86 154.901 26980
0.1595 0.159497 7825.66 47.7972 221.156 95.1629 3119.45 119.204 -148.086 136.807 218.603 149.49 27777
0.1605 0.1605 7600.33 46.1437 194.075 92.0994 3065.71 116.368 27.0226 133.099 523.307 145.005 28224
0.1615 0.161505 7493.2 45.2658 54.1527 90.8179 3144.31 114.931 146.246 131.272 598.675 142.819 28075
0.1625 0.162497 7475.71 44.6963 -19.9349 88.0176 2687.56 111.752 479.582 127.921 602.772 139.474 28590
0.1635 0.163499 7414.96 44.1179 32.4349 87.3979 2766.63 112.595 392.375 128.113 1134.96 138.972 29163
0.1645 0.164491 7308.84 43.1646 53.2507 84.9738 2575.41 110.039 226.637 125.099 1253.4 135.671 28996
0.1655 0.165505 7213.2 42.2979 175.494 82.7588 2401.35 107.61 -57.8544 122.277 1333.33 132.617 30777
0.1665 0.166507 7077.03 41.341 129.51 81.8076 2605.59 105.963 -129.059 120.362 1259.94 130.404 29211
0.1675 0.167499 6932.5 40.1249 -22.4012 77.993 2170.24 101.629 394.102 115.52 1300.71 125.362 30922
0.1685 0.168508 7014.73 40.3198 -155.443 77.9948 2103.57 101.38 271.677 115.418 1203.47 125.448 30867
0.1695 0.169499 7255.66 41.2437 -36.0425 77.1385 1494.33 99.5942 21.7082 114.319 771.448 125.234 30852
0.1705 0.170492 7310.29 41.3364 -32.4307 77.7535 1641.7 98.423 -31.3682 113.748 211.928 125.118 31257
0.1715 0.171495 7108.64 40.0484 227.041 76.0385 1805.28 95.0181 -576.36 110.2 -111.489 121.425 32608
0.1725 0.172509 6969.9 39.0683 264.039 74.506 1862.27 93.0488 -580.519 107.842 -100.81 118.76 32361
0.1735 0.173504 6822.29 38.1727 49.3376 74.1485 2239.68 90.147 9.16824 105.132 -784.591 116.38 32508
0.1745 0.174498 6647.46 36.9282 -19.0377 71.3427 2055.75 87.5023 400.108 101.837 -544.058 112.514 32791
0.1755 0.175498 6785.81 37.4422 43.1052 72.1573 2033.3 89.2865 337.777 103.608 -318.063 114.22 33633
0.1765 0.176501 6719.74 36.7968 -56.6541 70.3021 1820.03 88.3719 398.841 102.107 87.6542 112.219 33984
0.1775 0.177503 6697.01 36.4334 17.5667 69.3395 1717.12 88.6276 298.783 101.813 538.302 111.471 34069
0.1785 0.178498 6690.37 36.1496 138.256 68.1393 1520.25 88.0143 106.914 100.867 777.154 110.331 34536
0.1795 0.179504 6539.45 35.1918 81.9939 66.9173 1633.33 87.4644 -77.2198 99.6391 1162.77 108.492 35343
0.1805 0.180501 6513.52 34.9079 22.3405 67.1592 1854.65 87.0268 85.4074 99.2686 986.871 108.092 34990
0.1815 0.181505 6589.1 35.0869 19.9672 66.9088 1694.82 87.66 143.891 99.7304 1262.03 108.47 36243
0.1825 0.182502 6428.89 34.0324 101.23 64.9913 1708.51 83.3364 -133.815 95.5536 628.731 104.471 35694
0.1835 0.183504 6331.99 33.3874 132.344 64.2583 1809.47 83.3306 -182.092 95.0233 985.368 103.44 37087
0.1845 0.184506 6242.03 32.7333 103.883 63.0871 1836.65 80.2457 -203.253 92.1385 444.146 100.79 36651
0.1855 0.185507 6092.73 31.8308 134.306 61.936 1960.84 79.018 -132.268 90.4736 564.876 98.7246 37818
0.1865 0.18651 6029.43 31.2956 50.1641 60.5042 1834.71 76.6042 185.603 88.0579 320.773 96.3986 37267
0.1875 0.187501 5863.99 30.2833 15.5853 58.5842 1809.98 73.4288 -1.59082 84.7146 60.7706 92.9945 38334
0.1885 0.1885 5997.41 30.7818 -2.52607 59.3266 1764.72 75.4251 198.596 86.6188 412.162 94.7653 38223
0.1895 0.189495 5963.45 30.3794 -32.257 57.6668 1493.8 73.0933 265.825 84.2832 253.771 92.5258 39064
0.1905 0.1905 5990.85 30.3383 67.3081 57.3522 1417.04 73.6653 -14.6214 84.5631 569.816 92.5817 39609
0.1915 0.191498 5981.11 30.1373 -25.5096 57.0732 1456.86 72.4177 53.4841 83.5019 269.063 91.6836 39576
0.1925 0.192504 5978.93 29.9248 46.3165 55.973 1237.55 71.7859 98.2921 82.6191 467.063 90.6577 40909
0.1935 0.193505 5964.03 29.7236 55.5987 56.0232 1358.82 72.0936 56.189 82.7432 597.138 90.5935 40191
0.1945 0.194501 5875.2 29.1184 17.8827 54.7126 1289.32 70.3012 -15.6421 80.7799 532.604 88.5267 41232
0.1955 0.195498 5932.95 29.2474 63.449 54.8423 1269.05 70.3302 90.3216 80.9078 476.094 88.7428 40873
0.1965 0.196497 5910.19 28.9827 -10.6239 54.2935 1252.94 69.2569 -55.4016 79.8581 337.517 87.726 42816
0.1975 0.197502 5890.3 28.7243 97.7509 53.5335 1164.43 68.1956 50.317 78.7577 274.362 86.6244 41727
0.1985 0.19849 5651.88 27.467 99.2976 51.8232 1322.85 65.2814 -129.27 75.5492 66.3693 83.1639 42610
0.1995 0.199499 5589.78 27.0123 109.637 50.7851 1241.03 64.8038 -14.8061 74.6604 346.737 81.9576 43863
0.2005 0.200501 5624.51 27.0268 -35.5734 50.3953 1126.59 63.5585 280.746 73.7058 34.9079 81.2657 43302
0.2015 0.201501 5546.34 26.4872 35.8443 48.939 963.488 62.4382 48.8592 72.1896 246.75 79.4883 44487
0.2025 0.202497 5572.23 26.4909 89.8137 49.0765 1014.57 61.9173 -68.4054 71.8855 11.0177 79.3428 43759
0.2035 0.203491 5374.11 25.4211 72.0052 47.1326 982.367 60.4167 -3.94335 69.6673 361.348 76.5746 45282
0.2045 0.204497 5431.84 25.5647 -1.98307 47.266 949.875 60.7106 239.704 69.9912 394.331 76.9258 45483
0.2055 0.205499 5450.25 25.5068 -60.6004 46.6731 800.716 59.9736 293.028 69.2762 347.309 76.2688 46138
0.2065 0.206502 5539.62 25.792 31.2939 47.0808 774.473 61.0376 32.9125 70.2666 538.695 77.234 46227
0.2075 0.207493 5455.55 25.2608 52.1965 45.4825 564.022 59.4493 -22.0849 68.3842 626.771 75.2083 46236
0.2085 0.208503 5358.43 24.7463 81.413 45.7937 941.764 59.7788 -201.782 68.4508 759.211 74.9271 48361
0.2095 0.209504 5400.25 24.8015 120.235 45.7012 894.906 58.7709 -91.5575 67.7626 401.553 74.5017 46812
0.2105 0.210503 5311.17 24.3018 53.0482 45.2902 1042.83 58.3916 -47.4384 67.1072 513.274 73.5872 48813
0.2115 0.211497 5169.28 23.5484 38.5434 44.0358 1073.03 55.9518 -54.3464 64.6422 202.768 71.1046 47215
0.2125 0.21249 5178.61 23.4889 78.1572 44.0617 1111.81 56.6127 74.7843 65.0729 459.096 71.3351 50004
0.2135 0.213503 5197.81 23.4419 -44.9965 43.5754 988.636 55.7378 110.114 64.2967 317.383 70.6765 49509
0.2145 0.214498 5162.13 23.1463 -6.77685 42.4559 791.275 54.5742 189.306 62.9951 348.618 69.3215 49660
0.2155 0.215501 5186.54 23.1334 95.3381 42.0808 678.792 54.198 -22.9464 62.6117 346.216 68.9701 50841
0.2165 0.216498 5064.72 22.4854 49.2143 40.909 667.636 52.1368 -6.5084 60.5041 125.556 66.8164 50424
0.2175 0.217503 5030.39 22.2328 67.2386 40.5023 677.541 52.2934 -4.23776 60.3296 393.683 66.4001 52231
0.2185 0.218503 4957.43 21.8135 51.4947 39.8381 701.941 51.1576 108.483 59.127 291.618 65.1318 51078
0.2195 0.219501 4929.38 21.57 10.9077 38.6923 462.539 50.1547 138.184 57.9482 378.664 63.8931 52791
0.2205 0.220507 4936.02 21.5195 65.5054 39.2269 674.738 50.3644 -73.2559 58.2367 278.435 64.1752 52969
0.2215 0.2215 4852.92 21.0458 68.5547 37.8498 489.02 48.8882 -89.1129 56.5422 319.147 62.3664 52704
0.2225 0.222501 4818.59 20.8382 74.6625 38.4224 806.061 49.5066 -75.8849 57.0275 399.676 62.6623 54051
0.2235 0.223499 4744.39 20.4064 52.395 37.1655 639.552 47.2479 -79.9421 54.8785 76.161 60.6295 53938
0.2245 0.224498 4708.88 20.1886 84.9052 37.3617 839.191 47.6513 -58.5569 55.0833 211.142 60.6404 54735
0.2255 0.225491 4701.06 20.0677 64.6204 37.1389 842.031 46.9056 -30.8411 54.4446 24.5529 60.0868 54774
0.2265 0.226499 4621.09 19.6368 14.518 36.3424 824.712 46.2794 80.8448 53.5317 177.503 58.9547 56911
0.2275 0.227498 4643.42 19.65 -11.2659 36.454 861.589 46.2147 30.8411 53.5298 105.049 58.9958 54879
0.2285 0.228491 4631.26 19.4949 38.1238 35.7891 724.665 45.4419 23.7027 52.7173 87.2849 58.1814 57210
0.2295 0.229498 4668.89 19.5686 46.1667 35.9645 743.765 45.8336 -22.6915 53.0752 162.411 58.5113 57375
0.2305 0.230496 4606.91 19.2497 77.3663 35.8343 899.728 45.344 -33.2301 52.5246 84.0636 57.8821 57604
0.2315 0.231501 4475.01 18.6395 110.336 35.0332 996.729 44.2244 -78.613 51.1765 76.8681 56.3397 58629
0.2325 0.232502 4476.87 18.5522 70.4027 34.6848 921.952 44.4051 1.76576 51.1468 315.036 56.1534 58560
0.2335 0.233504 4336.3 17.899 41.4567 33.5659 927.665 43.1331 36.0924 49.5788 385.982 54.3511 59305
0.2345 0.234497 4468.75 18.3888 5.14864 34.8055 1077.23 44.4118 172.333 51.1042 304.15 56.0316 59196
0.2355 0.235493 4311.87 17.649 24.0169 33.095 917.568 42.8178 65.3395 49.085 508.048 53.7185 60063
0.2365 0.236499 4352.62 17.728 61.2446 33.0448 855.692 42.6489 47.654 48.9922 440.341 53.7072 61537
0.2375 0.237504 4279.61 17.3757 48.0161 32.6036 913.299 42.5326 -61.8294 48.5952 660.872 53.0678 61224
0.2385 0.238501 4312.13 17.4122 -13.3039 32.3914 825.064 41.7658 119.616 48.0155 410.225 52.6667 61221
0.2395 0.239494 4313.83 17.3386 3.09748 32.0672 753.86 41.61 126.036 47.7659 497.694 52.3666 62332
0.2405 0.240501 4234.35 16.9509 92.576 31.4131 766.295 40.5065 -109.465 46.6006 387.978 51.1489 63447
0.2415 0.241505 4200.15 16.7492 104.013 31.108 782.496 40.3089 -38.7668 46.2613 480.133 50.6967 63342
0.2425 0.242503 4085.85 16.2375 19.9491 30.3535 832.177 39.4236 92.0918 45.1504 535.649 49.3926 63379
0.2435 0.243496 4072.89 16.0997 -5.05717 29.6536 663.588 38.7723 146.946 44.4048 581.946 48.6294 64266
0.2445 0.244495 4155.1 16.3614 59.1706 30.1436 676.884 39.6547 54.1122 45.2991 703.243 49.5374 64695
0.2455 0.245496 4058.06 15.9113 57.8765 29.1967 616.762 38.5431 31.5865 43.998 727.84 48.1122 65947
0.2465 0.2465 3994.26 15.609 89.744 28.9335 717.774 37.9406 -95.0425 43.3519 651.335 47.3893 66018
0.2475 0.2475 3946.3 15.3932 83.5907 29.0561 903.774 38.0946 -174.271 43.4014 724.242 47.2843 66303
0.2485 0.248496 3873.27 15.0319 73.4276 28.2462 845.052 36.6726 -132.136 41.9689 524.659 45.8723 66958
0.2495 0.249492 3879.39 15.0182 13.3478 28.6274 1008.87 36.7845 1.73346 42.1569 407.053 46.0816 66975
0.2505 0.250489 3862.57 14.889 -1.15732 28.331 989.647 36.1672 -28.558 41.5663 290.056 45.528 68676
0.2515 0.2515 3911.08 14.993 -40.5228 28.1479 849.234 36.1821 177.918 41.5783 358.254 45.5653 69349
0.2525 0.252499 4005.21 15.2872 -32.5327 28.6169 845.87 36.1623 93.7683 41.8644 71.0215 46.1067 68592
0.2535 0.253499 4022.46 15.2533 27.7042 27.7831 540.849 35.7731 14.2707 41.3203 269.339 45.5092 70437
0.2545 0.254501 3983.92 15.0753 67.6465 28.0133 759.033 35.364 -31.8081 41.0201 28.2853 45.2454 70099
0.2555 0.255501 3916.51 14.7615 63.7729 27.4443 746.876 35.1043 -95.3564 40.4938 240.179 44.5103 71064
0.2565 0.256503 3893.64 14.6086 -41.9676 26.9194 649.004 34.2466 213.413 39.6695 118.306 43.7282 71409
0.2575 0.257506 4042.23 15.088 -22.0835 27.3366 485.636 35.345 199.024 40.8007 315.095 44.9316 72612
0.2585 0.258506 3972.08 14.7575 23.3919 26.2808 297.583 34.372 128.667 39.6163 412.862 43.6487 71845
0.2595 0.259496 3958.28 14.6576 101.645 26.3986 411.832 34.4682 -25.1097 39.6647 439.236 43.6312 72816
0.2605 0.260498 3841.36 14.1795 137.945 25.5442 400.659 33.7646 -127.066 38.6515 623.96 42.397 73743
0.2615 0.261499 3679.89 13.5465 74.0885 24.8964 575.358 32.7824 3.21886 37.4504 627.055 40.9643 74662
0.2625 0.262503 3719.77 13.6428 31.1322 25.0964 590.282 33.1026 -15.3155 37.7841 665.473 41.3059 74931
0.2635 0.263501 3669.47 13.3941 5.82797 24.4843 525.003 31.9609 49.3335 36.6781 466.886 40.2398 75087
0.2645 0.264502 3658.81 13.3126 69.4498 24.4312 559.405 32.0751 -10.6607 36.6956 571.147 40.1767 76678
0.2655 0.265506 3661.15 13.2621 26.9182 24.209 510.182 31.6224 -56.819 36.2894 470.21 39.8172 76035
0.2665 0.266501 3564.61 12.8746 46.4779 23.7609 601.355 30.9363 16.3137 35.477 453.833 38.8783 77094
0.2675 0.267506 3597.13 12.9334 48.2564 23.6446 516.444 30.7909 -50.0493 35.3701 422.674 38.8257 78463
0.2685 0.268501 3602.49 12.8961 -21.849 23.4202 456.088 30.1525 104.265 34.8521 228.447 38.4051 77076
0.2695 0.269497 3654.55 13.0267 -49.6358 23.2722 304.496 30.3592 183.727 35.0103 357.528 38.5723 79149
0.2705 0.270499 3727.59 13.233 -17.6522 23.6173 300.952 30.5383 48.1136 35.3597 228.652 39.0448 79648
0.2715 0.271502 3696.03 13.0678 73.6413 22.8748 113.544 29.5264 -107.953 34.366 119.834 38.0891 80241
0.2725 0.272505 3620.91 12.7706 108.308 23.0857 415.19 29.489 -124.862 34.237 100.299 37.828 80835
0.2735 0.2735 3552.64 12.4757 65.9509 22.3112 305.85 28.7787 -82.8676 33.3449 192.449 36.8271 80680
0.2745 0.274504 3515.86 12.3096 36.0428 22.3137 427.582 28.6094 106.875 33.1408 156.922 36.5673 82617
0.2755 0.275508 3509.29 12.2341 28.8116 21.871 297.72 27.8628 82.8774 32.4683 17.6506 35.9654 82548
0.2765 0.276499 3518.41 12.2226 36.6534 21.7974 276.354 28.5859 66.0083 32.8976 410.539 36.2158 81181
0.2775 0.277489 3376.36 11.686 112.039 20.86 272.718 26.89 25.0728 31.1772 166.493 34.4498 84096
0.2785 0.278498 3319.25 11.4591 105.958 20.6957 369.329 27.1656 -132.477 31.1754 453.288 34.2331 85215
0.2795 0.279502 3162.41 10.8749 60.6247 19.7304 392.683 25.2369 -2.85931 29.2582 114.913 32.2976 84514
0.2805 0.280503 3227.25 11.0612 15.5437 20.0644 395.726 26.2714 18.849 30.1541 422.374 33.1054 85815
0.2815 0.281501 3201.16 10.9252 -0.440951 19.6831 337.31 25.4315 33.8797 29.3978 220.472 32.4137 85485
0.2825 0.2825 3204.94 10.8948 6.31416 19.3583 221.847 25.2426 107.726 29.1465 286.303 32.1474 87220
0.2835 0.283504 3227.82 10.9326 0.768988 19.3603 195.699 25.2556 105.434 29.1768 280.689 32.1971 87147
0.2845 0.284497 3248.92 10.9679 37.3567 19.2968 144.202 25.5761 12.9448 29.3752 462.773 32.344 87102
0.2855 0.285498 3216.03 10.8268 91.1078 19.5247 346.599 25.4329 -129.631 29.2915 332.203 32.229 88971
0.2865 0.286499 3175.16 10.6536 95.6788 19.2086 340.426 25.0914 -165.39 28.8656 364.03 31.7403 89434
0.2875 0.287501 3060.92 10.2569 54.7654 19.0979 593.567 24.6357 -140.161 28.3138 300.613 31.047 89619
0.2885 0.288499 3043.57 10.1707 95.4849 19.0399 643.542 24.0742 -141.589 27.8652 63.0261 30.6824 90240
0.2895 0.289501 2994.4 9.98675 49.5646 18.9612 753.937 23.9333 7.0796 27.6395 75.5022 30.3772 91333
0.2905 0.290505 2964.01 9.84344 11.4621 18.5813 695.22 23.5407 83.6857 27.1783 105.365 29.8695 92139
0.2915 0.291506 2984.99 9.87562 4.16867 18.5882 674.887 23.5875 101.368 27.2308 118.425 29.929 92370
0.2925 0.292502 2996.6 9.85744 7.43327 18.1387 487.701 23.0505 99.4745 26.719 73.1103 29.4695 91819
0.2935 0.293496 2960.01 9.70133 51.5569 17.8071 459.586 22.8468 22.3175 26.388 179.479 29.0488 93552
0.2945 0.2945 2946.38 9.62107 34.8772 17.575 417.756 22.7053 82.6459 26.1741 246.047 28.7891 94701
0.2955 0.295502 2929.56 9.53006 45.5411 17.3276 380.786 22.1737 -28.7536 25.6901 118.545 28.3451 95020
0.2965 0.296503 2898.1 9.39707 9.53958 17.1232 392.946 22.0373 -36.788 25.4577 189.981 28.0395 95151
0.2975 0.297498 2873.33 9.29006 20.0489 17.0424 442.312 21.8109 50.3768 25.2216 143.241 27.7844 95802
0.2985 0.2985 2998.99 9.64722 -28.0354 17.1383 206.103 22.0832 78.37 25.6368 127.326 28.3535 97399
0.2995 0.299507 2997.45 9.6111 -16.6199 17.1374 234.824 22.1122 68.3411 25.6334 155.592 28.3229 97881
0.3005 0.300503 3039.13 9.71291 26.7532 17.2813 220.934 22.5914 21.6342 26.0475 307.335 28.7072 97188
0.3015 0.301497 3053.2 9.7242 49.0235 17.2417 194.61 22.4967 33.7405 25.9793 272.642 28.6617 98263
0.3025 0.302497 2968.5 9.42649 46.1242 16.8617 256.417 21.9948 33.0439 25.3564 293.138 27.9323 100050
0.3035 0.303506 2987.28 9.45773 10.6707 16.7572 184.987 22.2951 69.0262 25.5291 499.586 28.0501 100779
0.3045 0.304505 2990.12 9.4323 15.9594 16.6358 150.942 22.051 63.977 25.3136 436.273 27.8587 99982
0.3055 0.305503 2974.54 9.35758 77.0938 16.6386 210.363 22.1209 -6.69811 25.3202 502.798 27.8072 101559
0.3065 0.306497 2895.1 9.07809 86.2665 16.0487 163.506 21.3798 -110.986 24.4788 492.79 26.8992 100935
0.3075 0.307498 2814.81 8.80578 81.6881 15.7652 247.235 21.1194 -74.7453 24.0665 592.34 26.3537 103762
0.3085 0.308502 2765.43 8.62015 46.926 15.6992 368.446 20.4576 48.6578 23.5106 319.695 25.8214 102951
0.3095 0.309501 2747 8.53099 43.4669 15.4043 304.887 20.1006 -88.5693 23.1263 306.504 25.43 104394
0.3105 0.3105 2762.16 8.55129 26.1708 15.4933 330.997 20.1988 -38.5643 23.2319 308.657 25.5364 103963
0.3115 0.311497 2742.64 8.46398 35.564 15.3912 357.307 19.7367 -45.354 22.8455 134.09 25.1933 105936
0.3125 0.3125 2752.67 8.46433 19.0671 15.2265 278.087 19.9109 35.7195 22.9033 317.978 25.1903 105717
0.3135 0.313498 2718.17 8.33776 41.6033 15.2118 379.589 19.26 -11.205 22.4015 4.56579 24.767 106776
0.3145 0.314504 2766.7 8.45189 11.6616 15.2148 285.458 19.6732 46.5512 22.7378 196.358 25.0695 108733
0.3155 0.315499 2745.79 8.36563 14.4625 15.2037 353.685 19.4567 7.55133 22.5438 110.034 24.8754 105891
0.3165 0.3165 2707.44 8.21929 55.7738 14.7869 274.386 19.2089 9.80111 22.1587 240.728 24.4077 111072
0.3175 0.317506 2747.64 8.31639 1.54865 15.031 312.332 19.4766 41.3016 22.4712 230.795 24.746 108121
0.3185 0.318499 2724.22 8.21447 34.9823 14.6434 211.314 19.0065 36.4883 21.9754 203.945 24.2497 110484
0.3195 0.319501 2762.7 8.30706 4.85336 14.8422 230.399 19.4384 94.0758 22.3758 313.606 24.6313 110817
0.3205 0.320498 2716.94 8.14367 65.308 14.5771 240.073 18.9439 -53.724 21.8723 230.743 24.1114 111088
0.3215 0.321499 2690.32 8.03971 50.7986 14.4256 254.188 18.8028 -19.7101 21.6701 267.736 23.8624 112635
0.3225 0.322501 2624.08 7.82227 72.8399 14.1825 320.742 18.3201 -98.803 21.1528 198.01 23.2973 113202
0.3235 0.323504 2562.92 7.62 63.7208 13.8925 348.257 18.1379 19.7416 20.8237 319.984 22.8559 113863
0.3245 0.324503 2553.72 7.56763 21.6295 13.7496 323.867 17.9348 122.948 20.6137 298.121 22.643 114045
0.3255 0.325499 2521.5 7.44652 12.6565 13.3602 236.193 17.603 146.771 20.1954 360.458 22.1833 114828
0.3265 0.326503 2612.68 7.68524 33.0559 13.6529 179.83 17.8588 -15.8573 20.5919 265.956 22.6977 116431
0.3275 0.327504 2487.63 7.30259 68.218 13.019 193.351 17.2933 -122.326 19.7942 421.378 21.7303 116442
0.3285 0.328504 2461.03 7.19896 76.0628 12.9198 234.023 16.8217 -59.3903 19.3957 235.471 21.3621 116955
0.3295 0.329498 2457.11 7.1666 22.1909 12.947 276.601 16.7514 -74.1727 19.3418 190.757 21.3083 117028
0.3305 0.330497 2392.42 6.9603 51.1104 12.6803 323.942 16.1683 -12.5176 18.7538 67.3198 20.7031 119061
0.3315 0.331501 2444.39 7.09095 39.3348 12.9233 334.493 16.3661 -60.5152 19.0387 4.01429 21.0513 120060
0.3325 0.332504 2383.17 6.89021 23.0591 12.4678 279.658 15.7037 30.0239 18.3422 -63.4022 20.333 119737
0.3335 0.333501 2409.65 6.94339 11.3695 12.5126 255.777 15.9081 87.1944 18.5212 12.9514 20.4979 120531
0.3345 0.3345 2375.45 6.82252 28.7917 12.244 225.723 15.6745 72.6499 18.2093 66.3136 20.134 121704
0.3355 0.335503 2420.55 6.92686 34.8102 12.1981 110.941 15.757 60.0018 18.3077 101.204 20.267 122761
0.3365 0.336503 2372 6.76995 31.7172 11.9831 141.066 15.7285 24.5007 18.1215 263.065 19.9726 122472
0.3375 0.337499 2362.6 6.72244 34.5252 11.859 120.121 15.5561 39.6821 17.9404 246.217 19.7875 122985
0.3385 0.338498 2388.23 6.77665 33.1343 11.8715 80.2927 15.7633 17.8892 18.1057 344.109 19.9437 125380
0.3395 0.339503 2382.66 6.74073 15.2442 11.8312 91.2497 15.6671 68.2058 18.0108 322.98 19.843 125223
0.3405 0.3405 2357.87 6.65319 34.0625 11.6562 80.0515 15.5715 1.36083 17.8367 398.087 19.6225 125178
0.3415 0.341499 2333.14 6.57191 94.0381 11.7756 210.832 15.6732 -109.957 17.9076 431.211 19.6325 127059
0.3425 0.342503 2262.93 6.36153 86.2002 11.634 324.474 15.3631 -91.9408 17.5466 401.526 19.1972 127957
0.3435 0.343498 2221.62 6.23199 39.6426 11.4415 337.764 15.2736 41.6365 17.356 507.595 18.9298 126732
0.3445 0.344497 2218.5 6.21102 -5.51941 11.477 374.121 15.3649 91.9742 17.4234 554.547 18.9672 129639
0.3455 0.3455 2289.39 6.38713 -28.6397 11.3811 170.976 15.5868 162.373 17.6161 685.288 19.2198 129826
0.3465 0.346504 2304.42 6.40405 8.34159 11.4508 192.96 15.5434 80.9349 17.6193 610.552 19.2461 130875
0.3475 0.347502 2310.25 6.39879 77.5669 11.3098 128.788 15.3113 -156.485 17.4119 549.494 19.0699 130686
0.3485 0.348502 2237.72 6.18168 88.0075 11.1542 242.138 14.8772 -168.819 16.9644 454.969 18.5639 132211
0.3495 0.349504 2145.92 5.91437 81.6935 10.8754 339.018 14.3318 -102.948 16.3673 376.436 17.8968 132768
0.3505 0.350503 2132.28 5.85858 32.7102 10.7379 316.427 14.2519 29.1573 16.2369 428.924 17.7374 132957
0.3515 0.351501 2134.69 5.83755 6.00272 10.5333 232.653 13.7009 108.937 15.788 207.777 17.3748 133987
0.3525 0.352498 2133.22 5.81759 23.1025 10.4448 203.605 13.7856 73.142 15.8007 322.285 17.3483 134778
0.3535 0.353498 2110.45 5.73749 54.9062 10.1999 148.444 13.5136 -4.51421 15.492 326.025 17.0268 135699
0.3545 0.354501 2097.81 5.6866 30.3277 9.96149 70.4728 13.3374 16.9628 15.2627 372.949 16.7836 137380
0.3555 0.355501 2100.61 5.68385 27.1628 10.1711 181.798 13.6277 17.2517 15.5291 441.19 17.0062 136161
0.3565 0.356499 2093.11 5.64322 27.7093 9.88598 70.3992 13.2768 46.4355 15.1729 398.315 16.6742 138792
0.3575 0.3575 2130.19 5.72701 10.3168 10.2063 163.309 13.5509 -16.3945 15.5132 354.487 17.0346 138097
0.3585 0.358498 2126.59 5.70212 40.4152 10.1663 165.829 13.4365 -132.425 15.4137 315.934 16.9387 140028
0.3595 0.359503 2124.44 5.68185 56.7404 10.2476 229.025 13.4385 -92.4487 15.4326 278.145 16.9539 141099
0.3605 0.360505 2104.77 5.61964 31.1901 10.3428 340.709 13.4122 -88.1674 15.4151 226.644 16.9169 140821
0.3615 0.361502 2128.21 5.66424 3.00302 10.3977 330.524 13.3797 82.7536 15.435 154.62 16.9783 141756
0.3625 0.362504 2144 5.68319 22.382 10.2326 222.118 13.1874 65.5914 15.2636 123.969 16.841 142971
0.3635 0.363499 2124.39 5.61462 49.7006 10.0596 192.403 12.9856 35.4972 15.0346 125.019 16.5966 142270
0.3645 0.3645 2123.93 5.59732 39.6787 9.98093 166.312 13.0104 16.4697 15.0131 196.06 16.55 145311
0.3655 0.365503 2038.28 5.3565 32.6576 9.45215 103.902 12.3448 123.761 14.2661 176.527 15.7475 145434
0.3665 0.366501 2038.68 5.34202 43.682 9.28163 26.2407 12.2806 35.9175 14.1526 242.252 15.6239 144547
0.3675 0.367496 1990.35 5.20035 58.3881 9.00176 6.1279 11.7536 -61.0559 13.6413 125.569 15.1108 146892
0.3685 0.368499 1993.46 5.1936 40.5997 8.97865 -0.513806 11.7211 -5.65915 13.6084 120.245 15.0786 148113
0.3695 0.369499 1965.73 5.10733 -0.895695 8.85329 11.2218 11.4331 47.7224 13.3349 44.0244 14.8027 147387
0.3705 0.370498 2000.5 5.18479 22.6886 8.85433 -59.2386 11.6936 -1.59579 13.5394 177.851 14.9985 149758
0.3715 0.371501 1968.17 5.09 41.8006 8.58832 -125.373 11.0323 24.2601 12.9915 -59.1104 14.502 150099
0.3725 0.3725 1990.22 5.13042 51.2659 8.82057 -27.6067 11.52 -78.499 13.3901 110.494 14.8489 150468
0.3735 0.373498 1921.2 4.94016 62.2395 8.51182 -21.4121 10.8669 -21.1642 12.7652 -52.1313 14.2199 150709
0.3745 0.374497 1929.27 4.94688 70.6082 8.63398 44.7896 11.1723 -45.7944 12.9971 74.6205 14.4046 153108
0.3755 0.375501 1835.54 4.69385 39.3086 8.2198 56.9018 10.5137 -1.2723 12.2885 -3.57345 13.6468 153189
0.3765 0.376499 1870.28 4.76962 18.7393 8.31348 37.4194 10.8271 74.9521 12.5617 114.087 13.9054 153547
0.3775 0.377499 1867.28 4.74887 15.2596 8.28021 39.6684 10.7946 5.72721 12.5163 122.56 13.852 155424
0.3785 0.378502 1879.07 4.76672 39.1153 8.19212 -27.9125 10.7341 19.4374 12.4575 125.685 13.8068 155313
0.3795 0.379499 1874.79 4.7432 31.3046 8.24424 25.1478 10.7999 23.0675 12.5029 150.672 13.8306 156100
0.3805 0.3805 1816.61 4.58512 63.3193 7.89667 -16.5902 10.3836 -48.1415 12.0248 152.231 13.3124 157557
0.3815 0.381498 1822.42 4.58849 49.1663 8.06419 75.2221 10.6315 24.9333 12.2427 217.697 13.4978 157692
0.3825 0.382501 1803.02 4.52954 23.3975 7.89826 39.9994 10.57 45.6171 12.1095 305.386 13.3285 159703
0.3835 0.383505 1784.86 4.4766 25.4484 7.71192 -14.1111 10.4457 156.365 11.9336 357.476 13.1306 160338
0.3845 0.384506 1781.82 4.46207 20.1084 7.52335 -101.959 10.3984 92.724 11.8172 447.054 13.0087 160167
0.3855 0.3855 1781.76 4.45447 40.354 7.4167 -151.719 10.3632 -16.31 11.7452 491.578 12.9372 160033
0.3865 0.386496 1766.44 4.41171 55.9745 7.37656 -132.686 10.4382 -16.166 11.7526 595.017 12.9088 162444
0.3875 0.387502 1764.56 4.39552 -7.56899 7.20243 -212.214 10.2037 50.7035 11.5257 539.173 12.7054 164307
0.3885 0.388504 1808.21 4.49548 -24.4804 7.31576 -244.711 10.4001 94.2193 11.7449 556.775 12.9563 163882
0.3895 0.389505 1866.51 4.62615 13.7988 7.35324 -354.451 10.3245 21.9432 11.7894 402.07 13.0864 164595
0.3905 0.390501 1850.32 4.5723 65.2326 7.30849 -330.781 10.1652 -112.115 11.6501 350.273 12.9364 165006
0.3915 0.391501 1807.5 4.45635 67.7635 7.16982 -293.338 10.0826 -54.4198 11.4729 440.345 12.7043 166687
0.3925 0.392501 1763.19 4.32463 56.7588 7.08512 -220.558 9.6612 -81.1985 11.1189 268.914 12.3333 167256
0.3935 0.393501 1738.34 4.2508 60.8901 7.00662 -194.021 9.5223 -24.318 10.9609 258.356 12.1527 167937
0.3945 0.394496 1710.45 4.17059 31.0674 6.92186 -162.643 9.41865 -3.69939 10.818 279.999 11.977 167719
0.3955 0.395497 1717.47 4.17862 17.3191 6.85663 -209.305 9.32888 6.54042 10.7436 250.07 11.919 171636
0.3965 0.396504 1748.6 4.23835 12.8654 7.06253 -154.361 9.41401 -8.79716 10.9136 157.909 12.1198 171093
0.3975 0.3975 1748.58 4.23218 55.9571 6.9473 -214.913 9.34028 -53.487 10.8213 177.194 12.0292 170464
0.3985 0.398498 1698.03 4.09359 41.9635 6.93049 -85.1815 9.22116 -12.1524 10.6596 179.693 11.809 172113
0.3995 0.399495 1693.88 4.07526 38.4524 6.83134 -123.833 9.16937 -11.8986 10.5785 212.688 11.7202 173232
