### header ###
fiducial parameters:
Omega_m = 0.31
Omega_nu = 0
Omega_de = 0.69
Omega_k = 0
H_0 = 100
w_de = -1
zeff = 0
beta = 0
fgrowth = 0
b_1 = 2
gamma = 0.55
Lx = 3500 Ly = 3500 Lz = 3500
nx = 700 ny = 700 nz = 700
xoffset = -685.371 yoffset = -31.899 zoffset = 571.181
bins = 400 dk = 0.001
kx_ny = 0.628319 ky_ny = 0.628319 kz_ny = 0.628319
############################
A(data) = 8.09235 (not used)
A(ran) = 8.09224 (used)
Ngal = 429199
weighted Ngal = 0
Nran = 21653910
weighted Nran = 0
SN(data) = 3607.12
SN(ran) = 69.1565
SN(data+ran) = 3676.27
############################
13 columns: k_central k_mean P_0(k) sigma^{lin}_{P_0(k)} P^img_1(k) sigma^{lin}_{P_1(k)} P_2(k) sigma^{lin}_{P_2(k)} P^img_3(k) sigma^{lin}_{P_3(k)} P_4(k) sigma^{lin}_{P_4(k)} N_modes
### header ###
0.0005 0 0 0 0 0 0 0 0 0 0 0 0
0.0015 0.0017952 155749 133750 -111683 255942 61392.5 196959 105800 300728 -345373 391702 3
0.0025 0.00253879 252585 103943 -67834.9 205601 70463.7 308459 -54582.5 335091 268704 353353 6
0.0035 0.00331552 219095 64217.5 37196.7 118833 32613.7 179843 -113279 196879 217669 209229 7
0.0045 0.00420575 162687 38361.9 100905 71448.1 30161.2 100160 -87435.7 112743 118011 120979 24
0.0055 0.00557378 80958.3 15410.4 37655.2 34323.5 61112.2 43986.1 19081.8 49312.4 15756.2 52511.6 45
0.0065 0.00659388 66980.3 11119.8 10084.5 24030.6 46496.7 29392.4 71282.8 34202.6 -14640 36649.7 40
0.0075 0.00754703 51563.8 7211.31 -5767.12 15154.9 36611.6 16915.4 32503.6 20092.4 -27421.4 22611.1 57
0.0085 0.00846663 61202.7 7201.27 -10421.6 13832.7 19967.1 15145.9 24873.4 18648.5 -31433.7 21287.2 75
0.0095 0.00948925 74039.2 7677.62 -18065.1 15175.3 28318.3 18090 3160.16 21175.3 -13785.4 23524.4 112
0.0105 0.0105443 84880.1 7775.57 -7657.83 13744.1 4528.78 17191.3 4600.66 20265.4 -6200.84 22585.4 105
0.0115 0.0114567 88016.3 7419.95 789.696 14390.5 27106.4 18645.9 -10492.9 21251.8 13998.6 23099.7 144
0.0125 0.0124909 81700 6352.67 13435.9 12129.7 21752 15628.9 -12360.7 17906.2 10733.1 19539.7 169
0.0135 0.0133993 78521.1 5786.97 10758.6 12210.3 45464.8 15861.8 -5926.77 17856.4 20409 19102.6 180
0.0145 0.0144887 73570.9 5107.51 8104.02 10994.7 45481.7 14803.7 15284.5 16493.2 35379.5 17399.1 267
0.0155 0.0155005 69534.5 4553.95 -4152.21 10029.3 50903.4 13255.7 11252.4 14806.5 28015.5 15631.4 238
0.0165 0.0165335 77889.1 4695.01 -4686.56 9676.66 39991.6 12340.3 31175.2 14067.1 10792.8 15147.6 315
0.0175 0.0174787 83056.6 4622.61 -7070.15 9166.13 31725.8 11602.1 3810.02 13278.9 6175.24 14474 297
0.0185 0.0184418 78624.7 4147.77 8083.08 8211.23 28967.8 10336.8 15582.3 11866.3 2720.16 12950.4 388
0.0195 0.0194759 75643.1 3753.45 3357.45 7228.76 21993.3 9181.3 4443.12 10549.7 4727.6 11546 399
0.0205 0.0204543 67258.7 3169.56 1885.02 6039.45 17739.4 7544.9 454.842 8742.54 -1002.64 9629.98 462
0.0215 0.0215477 73007.5 3282.3 -1476.46 6059.08 12747.7 7247.96 9791.9 8629.71 -15035 9663.14 571
0.0225 0.0225534 67643.5 2915.01 -1716.56 5487.92 15571.2 6559.74 -12164 7774.45 -13759.3 8681.29 510
0.0235 0.0234893 66973.9 2763.54 7894.29 5055.1 10086 5997.33 -11872.2 7191.82 -15671.9 8077.11 555
0.0245 0.0243964 66911.8 2640.98 4189.9 5006.65 16846.5 6126.31 -2067.64 7167.38 -6794.51 7947.51 592
0.0255 0.025473 55576.9 2117.84 8758.6 3940.23 10284 4649.63 5176.19 5557.48 -14555.6 6242.33 837
0.0265 0.026529 53588.8 1951.89 2298.31 3534.49 6208.18 4208.74 4052.65 5048.19 -12675 5676.35 723
0.0275 0.0274997 51863.2 1839.12 -4532.15 3304.28 4843.8 3751.25 12689.7 4634.07 -20814.4 5273.82 826
0.0285 0.0284809 53907.3 1824.75 703.85 3277.53 5102.04 3898.24 -3926.49 4689.94 -13127.8 5280.73 831
0.0295 0.029469 51772.7 1691.2 1907.66 2994.6 2862.51 3595.99 -3465.56 4324.3 -11361.5 4866.24 996
0.0305 0.0305325 51047 1616.67 3536.18 2965.86 8037.28 3568.93 -5799.35 4244.22 -9426.62 4749.23 1041
0.0315 0.0315051 48664.2 1489.59 192.99 2797.87 10777.5 3512.16 -2669.22 4074.54 -324.043 4492.52 1036
0.0325 0.0324619 50702.5 1516.45 273.103 2944.02 16726.2 3525.24 1268.49 4136.52 -8989.02 4601.14 1059
0.0335 0.0334508 51497 1483.32 -156.578 2806.72 12511.2 3519.29 1082.07 4077.95 -262.899 4492.46 1302
0.0345 0.034512 51339.2 1444.65 1557.62 2811.02 17082.5 3434.55 -1772.58 3996.4 -4783.04 4415.94 1339
0.0355 0.0355335 50281 1381.95 3263.19 2763.39 20716.3 3469.57 -2308.79 3976.01 2139.6 4338.16 1365
0.0365 0.0364712 48169 1284.62 1272.36 2533.42 18071.6 3096.64 1411.77 3591.83 -4128.15 3960.51 1308
0.0375 0.0374489 46648.1 1213.09 1016.32 2399.68 18166.9 2896.86 -197.801 3373.14 -6388.68 3732.61 1579
0.0385 0.0384753 45565.6 1156.36 1113.81 2280.9 17589 2696.04 275.564 3166.55 -10279.3 3529.88 1662
0.0395 0.0395024 45548.2 1123.89 1362.71 2212.4 17055.6 2657.63 243.3 3103.89 -7260.74 3442.51 1683
0.0405 0.0405035 42002.5 1005.52 1430.2 1923.11 11829 2303.99 880.634 2713.29 -7626.21 3023.74 1822
0.0415 0.0415245 41684 980.686 731.337 1873.11 11850.9 2132.1 3249.73 2568.86 -15769.7 2909.5 1887
0.0425 0.0425015 39795.4 915.228 1856.41 1760.96 12312.3 2006.34 -175.246 2409.95 -14832.8 2727.18 1920
0.0435 0.0434921 38097.3 857.273 2782.26 1657.12 12433.4 1897.94 -4203.34 2272.25 -13351.1 2564.71 2005
0.0445 0.0444852 35873.5 789.187 2524.03 1551.95 13622.3 1812.53 -2122.51 2140.91 -9805.17 2396.81 2151
0.0455 0.0454803 34438.3 742.495 2234.74 1489.3 15211.3 1774.31 -832.054 2069.11 -6514.35 2295.4 2274
0.0465 0.0464867 34608.8 729.426 -1182.94 1462.46 15171.8 1755.43 3262.36 2042.43 -5433.12 2259.66 2311
0.0475 0.0474925 35362.9 730.729 -1927.87 1469.94 15930.9 1765.98 4139.89 2052.85 -5355.83 2269.16 2568
0.0485 0.0485184 37391 751.35 -765.918 1483.79 14278.1 1805.82 3344.33 2097.83 -3851.83 2315.42 2493
0.0495 0.0494948 37051.7 730.261 -172.903 1456.14 15220.6 1786.63 1032.05 2064.64 -2364.07 2270.05 2644
0.0505 0.0505063 36804.7 708.52 1073.85 1396.7 13574.4 1738.51 -699.113 2003.45 -242.489 2196.92 2829
0.0515 0.0514906 35909 679.996 175.819 1357.94 14756 1687.87 2063.86 1941.33 -209.324 2125.17 2784
0.0525 0.052493 35839.6 661.785 1364.25 1285.51 11536 1599.92 1391.04 1849.28 -632.252 2032.74 3055
0.0535 0.0534895 34385.5 625.922 1259.82 1239.1 13224 1526.48 1789.53 1764.22 -1743.44 1939.36 3009
0.0545 0.0544861 33159.2 591.924 1539.63 1167.29 12336.6 1440.63 163.255 1665.12 -1453.05 1830.58 3336
0.0555 0.0555087 32989.3 579.383 1785.26 1153.41 13214.6 1433.48 -376.275 1649.66 -242.259 1806.96 3349
0.0565 0.0564767 30657.1 531.439 1447.13 1080.4 14213.5 1365.8 -750.174 1557.16 2598.52 1690.86 3324
0.0575 0.0574797 30616.3 521.329 1091.4 1059.49 13975.7 1354.57 1811.55 1539.06 4214.69 1665.59 3639
0.0585 0.0584928 29761.6 498.577 555.799 1015.54 13680.7 1311.57 2658.25 1485.31 5644.06 1601.91 3846
0.0595 0.0595102 29389 485.362 -154.01 997.284 14505.8 1277.13 2890.7 1448.32 4560.18 1563.38 3787
0.0605 0.0604947 29612.1 477.606 -79.8904 958.881 12398.4 1223.38 1782.88 1393.6 3515.34 1512.27 3930
0.0615 0.0614831 29866.8 472.907 -124.536 940.656 11819.5 1177.32 -630.208 1351.79 693.705 1477.71 4083
0.0625 0.062491 29488.5 459.07 -79.4103 910.344 11361.9 1141.67 -167.459 1310.68 894.895 1432.64 4303
0.0635 0.063506 29080.9 445.953 1242.5 884.879 11297.1 1107.43 -1762.83 1272.33 653.143 1391.3 4470
0.0645 0.0645175 27813.7 419.626 804.788 829.42 10544.1 1025.26 576.055 1183.8 -999.168 1300.32 4479
0.0655 0.0655028 28344 422.142 -206.017 835.816 11133.7 1008.38 1083.48 1174.23 -3947.23 1299.41 4636
0.0665 0.0664888 27925 408.111 -174.075 797.473 9670.04 973.455 2110.62 1132.19 -2670.77 1250.49 4653
0.0675 0.0674966 28290.1 407.6 194.244 793.358 9570.84 949.961 422.934 1113.96 -4990.55 1238.66 5220
0.0685 0.0685273 27551.9 389.94 403.015 755.653 8771.84 928.563 -117.287 1079.02 -1983.1 1191.02 5029
0.0695 0.0694932 26958.9 376.949 1011.54 738.001 9460.41 904.323 385.728 1049.62 -2115.65 1157.74 5040
0.0705 0.0704803 26632.6 366.363 789.771 709.22 8415.42 866.461 541.088 1009.37 -2582.12 1116.27 5475
0.0715 0.0714879 25548.1 347.102 790.77 677.159 8706.7 825.77 704.129 960.969 -2574.25 1062.09 5509
0.0725 0.0724982 25025.7 335.874 435.979 658.333 8967.22 796.125 864.661 928.437 -3339.68 1028.11 5916
0.0735 0.0735127 24147.3 319.167 785.09 626.109 8568.87 774.683 -43.3715 895.544 -863.249 984.58 5721
0.0745 0.0744914 25024.3 326.334 31.6655 635.761 8470.86 770.288 -207.701 898.907 -3197 995.71 6028
0.0755 0.0754916 24060 310.141 282.396 612.603 9106.12 754.738 -1093.56 872.665 -1212.18 959.599 6183
0.0765 0.0764884 23955.1 304.635 864.352 603.022 9097.73 754.988 257.024 867.543 515.583 949.026 6330
0.0775 0.0774996 23744 300.46 280.309 612.757 11420.8 763.236 551.599 873.73 362.75 952.699 6583
0.0785 0.0784865 23289.6 290.565 448.297 589.955 10820.9 736.243 1023.44 843.021 503.843 919.281 6549
0.0795 0.0794732 23684.3 291.323 250.877 587.59 10514.4 730.35 1505.11 838.447 -15.5882 916.384 6828
0.0805 0.0804811 22780.2 276 10.58 553.44 9487.26 702.937 461.778 801.998 2200.81 871.684 7147
0.0815 0.0814996 22845.6 273.3 130.054 546.967 9419.44 690.753 657.176 789.852 1562.04 860.217 7386
0.0825 0.0825061 23342.1 275.335 1.58805 546.483 9037.05 687.394 646.662 788.226 1035.04 860.667 7227
0.0835 0.0835016 22792.6 264.897 583.544 517.124 7725.52 640.627 667.732 740.992 -771.485 814.978 7798
0.0845 0.0844961 22003 252.413 401.489 490.226 7109.42 608.015 -267.981 703.703 -695.27 774.339 7371
0.0855 0.0854894 21995 249.292 335.544 484.19 7074.23 604.344 236.673 697.777 -104.908 766.394 8256
0.0865 0.086507 22109.6 248.672 50.7415 490.452 8273.31 602.881 -18.9542 697.82 -1348.91 768.093 8037
0.0875 0.0874906 21683.6 241.073 430.67 476.74 8220.82 593.005 -122.189 683.106 -169.928 748.852 8155
0.0885 0.0884921 21216.1 234.006 852.838 468.055 8883.03 577.995 -328.5 666.017 -710.453 730.437 8718
0.0895 0.089499 20157.8 220.844 1432.86 448.871 9458.27 557.535 533.186 639.21 -0.95532 697.992 8571
0.0905 0.0904919 19094.9 206.562 1069.2 417.792 8652.1 518.28 781.349 595.008 -165.247 650.478 8932
0.0915 0.0915083 17989 193.311 769.786 397.662 9088.8 500.162 1169.37 570.039 1178.14 618.727 9285
0.0925 0.0925082 17632.3 186.381 251.665 376.433 7777.67 475.992 1616.29 543.327 1405.86 590.502 9204
0.0935 0.0935033 17471.8 182.313 -343.176 364.865 7177.12 463.309 1825.28 528.996 1647.09 575.052 9349
0.0945 0.0944804 17450.1 179.436 -253.983 353.917 6362.45 449.351 772.214 514.194 1435.13 560.504 9564
0.0955 0.0954927 17662.3 179.759 171.877 355.095 6488.82 453.16 711.033 517.49 1880.02 563.136 10155
0.0965 0.0964943 17394.1 175.113 541.475 345.058 6228.27 442.471 264.374 504.633 2201.28 548.666 9913
0.0975 0.0974914 16851.5 167.732 678.251 328.483 5715.91 422.038 -452.417 481.503 2202.36 523.799 10476
0.0985 0.0985024 16439.5 162.153 311.83 319.628 5883.82 411.556 417.706 468.693 2399.04 508.975 10575
0.0995 0.0995033 16420 160.105 12.0484 313.635 5638.3 398.245 68.9754 456.208 1263.84 497.895 10882
0.1005 0.100512 16122 155.714 -19.3841 305.698 5652.73 387.389 412.194 443.927 1123.43 484.579 10875
0.1015 0.101503 16126.8 153.731 366.457 295.909 4740.68 369.711 164.49 427.483 -111.91 470.079 11118
0.1025 0.102508 15683.9 148.002 336.298 284.295 4513.56 355.144 245.304 410.84 -144.037 451.949 11575
0.1035 0.103498 15046.6 140.533 402.563 269.326 4189.92 340.145 480.364 392.02 526.408 430.091 11364
0.1045 0.104501 15279 141.324 177.729 270.524 4229.97 339.093 303.749 392.034 38.5104 431.095 12093
0.1055 0.10551 14917.8 136.923 186.113 265.115 4629.95 333.342 436.812 384.064 363.009 421.155 12067
0.1065 0.106497 14905.7 135.535 363.554 262.676 4628.13 333.639 521.445 382.898 1027.94 418.616 12054
0.1075 0.107499 14754.9 132.864 21.2076 257.132 4490.5 329.806 125.711 377.233 1644.08 411.436 12807
0.1085 0.108501 15048.8 134.507 67.1065 262.914 5037.1 336.211 272.627 384.328 1608.79 418.776 12736
0.1095 0.109503 14757.8 130.971 271.182 258.432 5392.47 328.616 -524.597 375.804 1321.51 409.45 12933
0.1105 0.110502 14508.9 127.565 413.603 251.423 5233.27 320.776 -240.624 366.472 1507.85 398.993 13428
0.1115 0.111509 14230.2 124.101 347.721 245.648 5319.77 313.481 -102.743 357.851 1543.25 389.291 13453
0.1125 0.1125 13833.4 119.521 -7.25699 236.161 5132.79 298.845 201.226 342.238 945.097 373.322 13668
0.1135 0.113491 13580.5 116.583 237.101 232.494 5463.37 292.26 497.799 334.92 603.618 365.476 13791
0.1145 0.114486 13638.3 115.61 368.886 226.571 4735.54 284.781 296.316 327.397 433.575 358.328 14205
0.1155 0.115493 13157 110.657 215.929 217.536 4725.69 271.429 240.471 312.687 24.3213 342.791 14776
0.1165 0.116498 13116.3 109.262 -33.4548 214.135 4558.16 269.302 -22.4052 309.534 453.551 338.723 14553
0.1175 0.117473 13215.9 109.113 -46.4198 213.23 4495.67 266.649 52.3078 307.284 102.29 336.976 14568
0.1185 0.118491 13373.2 109.474 193.284 213.749 4516.29 267.142 -391.277 307.982 63.4687 337.839 16015
0.1195 0.119503 13078.1 106.148 103.037 206.918 4368.48 257.125 117.883 297.151 -277.996 326.603 15270
0.1205 0.120507 13067.5 105.247 157.235 206.152 4532.76 258.292 -208.06 297.317 232.43 325.736 15999
0.1215 0.1215 13021.6 103.876 110.968 201.803 4193.27 252.084 675.193 290.979 -19.4185 319.487 15670
0.1225 0.122507 13030 103.017 -97.775 199.298 4032.91 249.003 660.382 287.645 -42.0543 316.024 16887
0.1235 0.123522 13147.2 103.032 -71.1839 198.576 3926.33 247.445 279.458 286.333 -224.484 315.033 16407
0.1245 0.124498 12998.4 101.122 295.046 195.496 4003 243.077 479.089 281.341 -320.249 309.576 16306
0.1255 0.125499 12595.8 97.0199 356.663 185.755 3492.37 233.143 -123.208 269.393 106.79 296.117 17523
0.1265 0.126501 12413.3 95.0833 319.695 184.132 3899.79 228.187 72.1555 264.339 -460.574 291.08 17154
0.1275 0.127506 12118.2 91.8728 267.875 175.611 3315.21 218.824 153.076 253.649 -281.705 279.453 18007
0.1285 0.128503 11786.3 88.767 179.668 170.81 3472.16 212.021 -115.606 245.79 -405.373 270.801 17496
0.1295 0.129499 11813.7 88.3458 209.26 170.666 3620.7 211.783 19.7588 245.336 -390.203 270.154 18405
0.1305 0.13049 11830.1 87.8869 -82.106 170.97 3873.27 212.694 -80.5791 245.802 -209.985 270.164 18100
0.1315 0.131488 11829.6 87.2437 14.6533 170.025 3938.87 211.556 158.743 244.382 -187.034 268.511 19059
0.1325 0.132493 11891.7 86.9632 92.7284 169.084 3837.48 212.983 83.4592 245.026 422.994 268.367 18957
0.1335 0.133491 11767.4 85.6081 153.876 168.443 4222.38 212.51 42.0338 243.805 606.768 266.373 19468
0.1345 0.134507 11847.3 85.6224 292.221 169.15 4373.39 214.67 375.756 245.604 959.61 267.692 19953
0.1355 0.13551 11374.4 81.6284 264.959 161.565 4254.54 205.708 342.678 235.013 1107.39 255.828 19956
0.1365 0.136499 11316.1 80.579 292.989 159.09 4177.18 200.84 69.0674 230.223 644.895 251.341 19723
0.1375 0.137496 10951.6 77.2418 250.505 150.934 3666.11 192.279 43.6316 220.104 980.375 240.101 20946
0.1385 0.138511 10808.7 75.6915 290.149 147.811 3631.38 186.021 159.362 213.902 376.479 234.166 20955
0.1395 0.139498 10593.1 73.5809 0.120556 143.17 3410.89 182.438 272.126 208.978 922.238 228.112 20506
0.1405 0.140483 10408.8 71.6479 54.2399 137.363 2934.21 171.707 629.056 198.686 -84.9379 218.578 21447
0.1415 0.141484 10454.3 71.3099 -56.206 135.083 2564.18 170.407 596.783 196.954 217.378 216.561 21771
0.1425 0.142494 10385.4 70.2977 -11.1209 132.599 2417.68 167.459 485.498 193.621 225.309 212.992 22470
0.1435 0.143509 10489.5 70.4771 122.454 132.557 2357.15 167.181 193.958 193.505 143.761 213.054 22519
0.1445 0.144499 10302.9 68.741 118.36 129.315 2318.26 163.514 -45.9241 189.054 253.823 208.006 22218
0.1455 0.145505 10239.5 67.8874 154.821 128.306 2433.86 162.996 -242.828 187.933 494.765 206.35 23559
0.1465 0.146507 10067.3 66.3707 135.835 126.479 2640.25 159.943 -353.496 184.451 365.884 202.484 23044
0.1475 0.147505 10148.6 66.6217 132.59 128.847 3124.71 161.497 -319.349 186.335 104.756 204.55 23649
0.1485 0.148499 9947.32 64.9409 237.4 126.528 3277.31 159.074 -65.9271 183.063 287.973 200.541 23640
0.1495 0.149495 9892.79 64.1409 189.348 124.941 3240.47 157.783 78.6106 181.287 476.662 198.351 24457
0.1505 0.1505 9772.55 63.0091 39.9418 123.502 3376.59 156.629 -87.2397 179.485 703.662 195.934 24591
0.1515 0.151499 9644.17 61.7574 148.9 120.782 3277.85 152.379 402.804 175.02 449.015 191.411 25020
0.1525 0.152505 9486.01 60.3899 267.334 118.602 3330.17 150.528 108.23 172.388 729.051 188.082 25297
0.1535 0.153501 9211.96 58.2442 264.035 114.192 3163.45 146.033 280.797 166.847 1007.82 181.702 25452
0.1545 0.154504 9066.61 56.8803 232.815 110.754 2938.68 140.846 373.455 161.436 708.642 176.292 26061
0.1555 0.155499 8892.86 55.3489 21.2191 106.913 2668.9 136.294 387.949 156.304 733.141 170.809 26128
0.1565 0.156495 8721.2 53.954 83.2902 104.466 2683.19 132.837 294.796 152.413 639.359 166.607 26331
0.1575 0.157497 8732.14 53.6169 167.701 103.125 2509.92 131.504 46.7333 150.901 699.369 165.022 27345
0.1585 0.158499 8626.69 52.5889 159.531 100.559 2341.81 127.59 -33.9739 146.847 460.225 160.969 26980
0.1595 0.159497 8477.83 51.4046 71.9522 98.8144 2433.79 125.351 -378.377 144.148 483.425 157.868 27777
0.1605 0.1605 8496.09 51.2405 248.868 98.9435 2564.76 124.726 -246.641 143.644 288.013 157.473 28224
0.1615 0.161505 8266.84 49.6344 195.889 96.841 2749.74 122.248 19.4823 140.437 394.835 153.63 28075
0.1625 0.162497 8190.62 48.7592 -0.842897 93.9007 2405.62 118.411 138.84 136.419 269.212 149.609 28590
0.1635 0.163499 8116.21 48.0299 9.43382 92.3491 2361.08 115.312 406.702 133.403 -84.3717 146.739 29163
0.1645 0.164491 8171.3 48.0245 48.2997 91.855 2250.95 114.487 366.543 132.685 -178.787 146.151 28996
0.1655 0.165505 8179.2 47.6919 -94.4982 90.2525 1988.17 113.373 144.264 131.27 21.23 144.538 30777
0.1665 0.166507 8151.06 47.2156 91.8334 89.1045 1904.01 113.016 59.4348 130.424 327.307 143.304 29211
0.1675 0.167499 8083.25 46.5669 136.297 88.0896 1954.47 110.7 14.1976 128.163 31.093 141.113 30922
0.1685 0.168508 7989.22 45.8089 252.306 87.4917 2137.49 111.247 -53.5675 127.962 491.749 140.215 30867
0.1695 0.169499 7774.44 44.3782 288.367 85.5077 2281.42 108.591 -32.2486 124.76 497.041 136.545 30852
0.1705 0.170492 7577.64 43.0223 153.241 83.1895 2282.93 106.842 156.538 122.166 881.429 133.216 31257
0.1715 0.171495 7614.94 42.947 -30.3306 82.6456 2193.67 105.866 285.148 121.272 764.396 132.442 32608
0.1725 0.172509 7611.39 42.5689 -105.906 80.4435 1801.24 102.654 354.263 118.159 511.389 129.582 32361
0.1735 0.173504 7631.93 42.4617 -58.9455 80.6656 1916.92 103.203 157.021 118.547 633.721 129.806 32508
0.1745 0.174498 7709.64 42.5498 51.3627 79.3166 1527.67 101.196 123.799 116.792 409.587 128.401 32791
0.1755 0.175498 7513.71 41.2418 136.921 77.0187 1525.07 98.3558 120.624 113.429 440.728 124.636 33633
0.1765 0.176501 7476.7 40.7153 26.9064 74.0927 990.526 94.2668 116.833 109.473 136.095 120.939 33984
0.1775 0.177503 7399.28 40.1502 104.844 74.7 1438.87 93.7964 -32.5345 109.015 -99.3919 120.388 34069
0.1785 0.178498 7390.59 39.8585 203.376 73.687 1304.57 92.7434 -230.543 107.838 -68.2607 119.137 34536
0.1795 0.179504 7176.75 38.5316 207.876 71.9312 1464.51 90.5201 -377.975 105.044 -7.64314 115.861 35343
0.1805 0.180501 7021.25 37.503 178.786 70.4683 1556.08 89.1778 -134.827 103.098 191.125 113.43 34990
0.1815 0.181505 6898.71 36.6681 97.6568 69.2268 1623.09 87.3304 261.381 100.997 122.019 111.12 36243
0.1825 0.182502 6979.32 36.8447 -44.6747 68.6391 1383.38 86.1303 342.844 100.113 -104.659 110.545 35694
0.1835 0.183504 6994.77 36.737 -177.8 68.6613 1450.51 86.3338 277.613 100.191 -24.9453 110.514 37087
0.1845 0.184506 7105.55 37.062 -4.26574 68.4464 1231.47 86.4261 78.5107 100.373 16.4311 110.82 36651
0.1855 0.185507 7206.04 37.3886 -1.7259 69.2067 1292.22 87.7125 88.6539 101.656 139.626 112.087 37818
0.1865 0.18651 7102.85 36.6563 60.4094 67.9054 1282.82 86.9487 -100.667 100.325 439.617 110.318 37267
0.1875 0.187501 7145.74 36.6764 87.771 67.8503 1263.86 86.8004 61.7271 100.218 405.524 110.251 38334
0.1885 0.1885 7039.57 35.967 221.723 66.9677 1369.85 85.5829 -26.0915 98.7271 415.601 108.518 38223
0.1895 0.189495 6850.1 34.8442 219.411 65.3808 1483.64 83.2922 -40.3243 96.0609 366.051 105.53 39064
0.1905 0.1905 6762.67 34.2456 180.124 64.6803 1583.45 82.9863 -97.5211 95.3208 606.731 104.405 39609
0.1915 0.191498 6637.5 33.4468 56.0553 63.3819 1617.14 81.2894 -19.7942 93.3276 604.81 102.172 39576
0.1925 0.192504 6669.61 33.4303 -44.8685 63.2637 1598.9 81.1586 220.963 93.1952 606.317 102.043 40909
0.1935 0.193505 6671.27 33.2824 96.9581 63.2452 1678.86 81.014 31.544 93.0086 590.034 101.806 40191
0.1945 0.194501 6598.05 32.713 85.7861 61.6383 1497.39 79.2947 88.6849 91.0246 649.49 99.6739 41232
0.1955 0.195498 6576.92 32.4398 17.7903 61.0744 1475.61 78.7646 173.433 90.3432 711.96 98.8783 40873
0.1965 0.196497 6582.86 32.2658 7.83872 60.0957 1278.08 77.7776 135.965 89.2603 737.919 97.7966 42816
0.1975 0.197502 6577.04 32.1025 41.1782 60.3318 1448.05 77.3869 154.075 88.9811 548.416 97.5529 41727
0.1985 0.19849 6482.81 31.4424 36.5594 58.2779 1171.57 75.4612 252.618 86.6663 704.817 95.0238 42610
0.1995 0.199499 6370.31 30.739 82.0498 56.9607 1147.91 73.6782 134.628 84.6552 663.153 92.8492 43863
0.2005 0.200501 6290.42 30.186 135.352 55.4725 987.323 72.1466 222.047 82.8411 739.395 90.8744 43302
0.2015 0.201501 6332.77 30.2449 50.791 55.9017 1099.81 72.1313 -45.6481 83.0006 578.344 91.1314 44487
0.2025 0.202497 6194.37 29.4245 69.4162 53.9837 947.22 70.271 -2.8195 80.6809 741.677 88.5156 43759
0.2035 0.203491 6220.42 29.4306 76.7334 54.5449 1124.84 70.5732 -301.828 81.0821 657.927 88.9168 45282
0.2045 0.204497 6162.92 29.0243 108.65 53.9851 1172.83 69.9832 -95.1889 80.2822 725.56 87.9466 45483
0.2055 0.205499 6162.32 28.8946 140.803 54.0526 1276.73 69.4382 -104.857 79.8625 526.901 87.5939 46138
0.2065 0.206502 5953.32 27.7929 133.361 52.1837 1289.93 67.3684 -62.8626 77.277 655.46 84.598 46227
0.2075 0.207493 5975.94 27.7654 84.8904 52.2007 1319.16 67.174 59.0952 77.1328 582.825 84.4889 46236
0.2085 0.208503 5881.72 27.2228 65.2322 51.5981 1440.41 65.8969 47.6126 75.7772 430.386 83.0472 48361
0.2095 0.209504 5862.37 26.9855 127.532 50.8571 1337.72 65.1276 32.0944 74.8927 464.91 82.1023 46812
0.2105 0.210503 5737.5 26.2837 113.886 49.516 1307.12 63.1546 -7.65961 72.7454 355.553 79.8369 48813
0.2115 0.211497 5625.83 25.6511 41.5075 48.345 1284.77 61.975 -85.0152 71.2382 471.663 78.0737 47215
0.2125 0.21249 5586.04 25.3577 72.6185 47.8697 1312.46 60.4861 122.943 69.9051 137.007 76.8812 50004
0.2135 0.213503 5531.45 24.9661 43.5494 46.7277 1162.15 59.2602 169.845 68.5069 177.203 75.3798 49509
0.2145 0.214498 5481.74 24.5973 53.8822 45.4736 962.141 57.7175 226.245 66.8727 130.328 73.7196 49660
0.2155 0.215501 5399.8 24.0972 57.4732 44.0725 787.669 55.981 258.187 64.9909 88.0274 71.7618 50841
0.2165 0.216498 5442.2 24.1691 47.9563 44.0934 757.253 56.0076 230.958 65.0563 75.9463 71.8653 50424
0.2175 0.217503 5343.12 23.603 38.3866 42.6548 605.945 54.9619 144.753 63.5699 327.113 70.0974 52231
0.2185 0.218503 5332.1 23.4406 59.5742 42.1831 545.749 54.4246 22.8895 62.967 329.938 69.4641 51078
0.2195 0.219501 5348.95 23.4104 18.7217 42.2217 578.651 54.5252 -82.5382 63.0289 364.174 69.4899 52791
0.2205 0.220507 5362.8 23.3759 19.4997 42.513 699.171 54.7565 -99.6647 63.2596 357.219 69.6852 52969
0.2215 0.2215 5260.49 22.828 123.379 41.4597 668.005 53.21 -195.42 61.5879 269.409 67.9157 52704
0.2225 0.222501 5290.69 22.8857 108.164 42.3147 927.042 54.3016 -134.779 62.6229 366.483 68.8447 54051
0.2235 0.223499 5142.59 22.1431 79.254 40.9238 896.029 52.3675 -59.0261 60.4679 293.151 66.5286 53938
0.2245 0.224498 5148.1 22.0868 136.543 41.1502 1012.49 52.4685 -6.54659 60.5759 258.209 66.6146 54735
0.2255 0.225491 5052.91 21.5856 68.9621 40.3057 1022.78 51.6138 33.5512 59.4585 354.182 65.289 54774
0.2265 0.226499 5017.67 21.3396 64.5486 39.8275 1011.88 50.7505 65.4885 58.5871 246.479 64.4182 56911
0.2275 0.227498 5027.55 21.2866 22.4752 39.7228 1008.92 50.9107 -14.3511 58.6354 367.405 64.3782 54879
0.2285 0.228491 5027.98 21.1863 -58.4501 39.3636 948.287 50.4664 45.9086 58.1657 352.394 63.9062 57210
0.2295 0.229498 5080.42 21.3278 46.9036 39.8813 1051.22 50.8806 7.80718 58.6859 284.719 64.4857 57375
0.2305 0.230496 4992.75 20.8764 102.929 39.1392 1069.84 49.9152 -65.637 57.5521 285.205 63.2168 57604
0.2315 0.231501 4966.56 20.6667 107.023 38.5564 992.291 49.3312 142.584 56.8597 324.554 62.4574 58629
0.2325 0.232502 4868.25 20.1505 82.4015 37.2119 834.35 47.8234 145.247 55.1317 357.846 60.6002 58560
0.2335 0.233504 4807.79 19.8073 48.4033 36.4134 770.164 46.228 108.163 53.6174 93.6815 59.1622 59305
0.2345 0.234497 4774.4 19.5778 46.6629 35.8145 697.316 45.9532 148.948 53.1131 273.003 58.501 59196
0.2355 0.235493 4704.83 19.2009 70.2492 34.8603 593.21 44.4034 57.6255 51.5659 95.8454 56.9735 60063
0.2365 0.236499 4688.95 19.0594 76.0363 34.7414 639.868 44.6199 26.0424 51.587 269.863 56.8436 61537
0.2375 0.237504 4676.19 18.9236 -0.494322 34.407 607.712 44.0556 -33.0512 51.029 199.651 56.2949 61224
0.2385 0.238501 4648.93 18.7385 32.3642 34.1665 637.959 43.9252 84.2312 50.7596 287.401 55.9152 61221
0.2395 0.239494 4666.5 18.7287 35.1397 34.0876 617.429 43.9754 43.6056 50.7605 344.891 55.8879 62332
0.2405 0.240501 4694.27 18.7644 29.1075 34.212 642.44 44.1961 60.5637 50.9678 381.783 56.0806 63447
0.2415 0.241505 4651.47 18.5173 7.04609 33.7083 614.984 43.8877 95.1637 50.4605 519.312 55.4354 63342
0.2425 0.242503 4663.55 18.4777 28.0413 33.3257 503.07 43.3453 115.571 49.9503 451.018 54.979 63379
0.2435 0.243496 4641.93 18.3197 49.7767 33.0649 508.38 43.2465 84.0791 49.7092 558.354 54.6374 64266
0.2445 0.244495 4568.6 17.9494 64.5008 32.3112 471.146 41.6566 31.6042 48.2078 270.516 53.1884 64695
0.2455 0.245496 4502.19 17.6215 97.6493 31.7609 478.068 41.3958 -60.3953 47.6665 471.157 52.4471 65947
0.2465 0.2465 4466.68 17.4125 113.398 31.4738 509.35 40.6152 -95.1098 46.9436 302.998 51.7442 66018
0.2475 0.2475 4401.38 17.0895 69.6238 30.9549 526.626 39.9017 -95.8873 46.1208 288.742 50.8317 66303
0.2485 0.248496 4386.85 16.9768 88.5911 31.0793 650.965 39.8049 -82.7598 46.0348 223.759 50.7213 66958
0.2495 0.249492 4380.23 16.8827 57.9259 30.8949 642.592 39.9248 -34.4067 46.0014 380.57 50.5788 66975
0.2505 0.250489 4294.35 16.492 56.9309 30.293 671.043 39.3228 37.6343 45.1902 469.763 49.6006 68676
0.2515 0.2515 4310.48 16.4904 73.7321 30.3164 682.649 39.3852 95.5703 45.2397 489.635 49.6371 69349
0.2525 0.252499 4239.77 16.1646 101.876 29.8328 712.52 38.9271 135.264 44.602 577.416 48.8516 68592
0.2535 0.253499 4179.36 15.8587 35.0349 28.9747 590.755 37.8786 186.44 43.4493 553.916 47.6542 70437
0.2545 0.254501 4184.34 15.8114 -26.6567 28.6729 507.801 37.8655 75.4037 43.3087 695.885 47.4581 70099
0.2555 0.255501 4206.45 15.8284 -7.91386 28.6831 503.959 37.6813 106.849 43.1988 603.381 47.3991 71064
0.2565 0.256503 4178.12 15.6482 23.2917 27.9742 354.214 36.7824 55.0621 42.2614 544.655 46.4771 71409
0.2575 0.257506 4198.96 15.6642 60.5685 27.9989 354.321 36.726 52.392 42.2422 505.173 46.482 72612
0.2585 0.258506 4098.76 15.2242 18.4765 26.8877 221.005 35.3136 29.3671 40.6936 453.564 44.8625 71845
0.2595 0.259496 4106.84 15.1952 43.2277 26.8048 208.32 35.1435 116.214 40.5404 419.177 44.7189 72816
0.2605 0.260498 4060.67 14.9636 101.296 26.2596 151.578 34.1924 13.6566 39.6108 279.371 43.8001 73743
0.2615 0.261499 4000.2 14.6893 92.0752 26.066 263.762 33.9829 -93.58 39.252 349.59 43.306 74662
0.2625 0.262503 3886.51 14.2204 142.562 25.1619 227.429 33.0496 -70.4313 38.0691 442.107 41.954 74931
0.2635 0.263501 3872.94 14.1217 106.735 25.1925 307.633 33.1813 -80.8749 38.1118 523.122 41.9135 75087
0.2645 0.264502 3776.07 13.72 35.8597 24.5482 327.306 32.5134 62.2875 37.2333 609.167 40.8759 76678
0.2655 0.265506 3843.61 13.9129 -22.9918 24.9054 338.439 32.9507 115.813 37.7492 605.689 41.4476 76035
0.2665 0.266501 3855 13.8971 -15.8091 24.8505 329.67 32.6783 85.2419 37.5428 505.618 41.2845 77094
0.2675 0.267506 3865.16 13.8792 28.103 24.6726 272.191 32.5546 0.244277 37.388 531.71 41.1285 78463
0.2685 0.268501 3847.31 13.7639 69.7404 24.4657 270.453 32.2247 -90.8212 37.0392 502.065 40.7604 77076
0.2695 0.269497 3865.15 13.775 55.8497 24.4974 276.667 32.1573 -102.192 37.0136 453.614 40.7585 79149
0.2705 0.270499 3769.53 13.3929 66.5376 23.9704 329.71 31.7433 16.5233 36.3512 607.584 39.9068 79648
0.2715 0.271502 3738.36 13.2261 96.1792 23.5678 285.042 30.8965 53.292 35.5679 426.847 39.1645 80241
0.2725 0.272505 3683.2 12.9854 78.4796 23.1477 284.059 30.4887 94.1535 35.024 491.972 38.5227 80835
0.2735 0.2735 3634.19 12.763 52.5291 22.6454 238.087 29.8707 40.498 34.3231 486.383 37.7725 80680
0.2745 0.274504 3602.46 12.6099 33.5852 22.3938 243.951 29.7586 42.8314 34.0777 595.614 37.4368 82617
0.2755 0.275508 3633.17 12.6739 28.0597 22.6026 284.819 30.0454 -0.997578 34.374 625.843 37.7305 82548
0.2765 0.276499 3637.92 12.6424 18.5154 22.5302 278.996 29.8597 -69.0741 34.2108 578.253 37.58 81181
0.2775 0.277489 3622.61 12.5475 44.7072 22.5125 340.056 29.7892 -57.6838 34.1096 583.89 37.4351 84096
0.2785 0.278498 3632.43 12.5377 37.8125 22.4518 322.722 29.8275 -80.4901 34.108 636.798 37.4141 85215
0.2795 0.279502 3569.07 12.2688 38.2663 21.9529 310.79 28.9021 11.8693 33.1828 488.103 36.4767 84514
0.2805 0.280503 3581.09 12.2606 31.0165 21.764 239.329 28.5649 3.94943 32.8922 409.336 36.2341 85815
0.2815 0.281501 3549.03 12.1088 64.5473 21.6521 303.588 28.1005 11.6296 32.4702 277.113 35.8123 85485
0.2825 0.2825 3508.38 11.9239 59.2961 21.1435 224.261 27.4036 -0.211975 31.741 221.297 35.0703 87220
0.2835 0.283504 3443.65 11.6635 75.6779 20.6295 197.964 26.9645 -1.16941 31.13 321.725 34.346 87147
0.2845 0.284497 3446.27 11.631 65.0164 20.5514 189.353 26.8923 14.8297 31.0377 332.781 34.242 87102
0.2855 0.285498 3426.15 11.525 14.2496 20.335 176.032 26.7981 136.56 30.8417 420.925 33.9809 88971
0.2865 0.286499 3457.18 11.5891 12.4243 20.5538 223.226 27.048 30.7228 31.1147 428.151 34.2616 89434
0.2875 0.287501 3418.42 11.4201 53.3057 20.1871 191.768 26.6812 19.782 30.6539 468.919 33.7431 89619
0.2885 0.288499 3399.82 11.3252 72.2152 20.1602 250.195 26.7914 27.0516 30.6654 573.32 33.6732 90240
0.2895 0.289501 3383.08 11.2349 -3.04671 19.9731 237.423 26.7755 35.9917 30.5399 687.93 33.4822 91333
0.2905 0.290505 3409.9 11.2828 -24.5621 20.1964 299.414 26.82 57.1487 30.6764 589.89 33.6556 92139
0.2915 0.291506 3445.24 11.3565 -8.48583 20.2195 255.96 26.8091 53.5721 30.7151 549.568 33.7429 92370
0.2925 0.292502 3412.6 11.2092 75.8984 19.8266 196.435 26.3455 17.297 30.193 545.385 33.1943 91819
0.2935 0.293496 3408.24 11.1621 72.416 19.8638 248.556 26.4855 -73.4335 30.2742 621.488 33.2217 93552
0.2945 0.2945 3334.97 10.8816 58.6522 19.3083 218.905 25.6841 -32.6578 29.4037 562.022 32.3003 94701
0.2955 0.295502 3351.81 10.9021 52.8438 19.4555 267.937 25.8673 19.6922 29.5877 582.998 32.4715 95020
0.2965 0.296503 3314.28 10.7372 50.5736 18.9777 184.732 25.138 46.0851 28.8537 483.447 31.7472 95151
0.2975 0.297498 3254.95 10.5107 76.5484 18.5312 161.125 24.6253 7.36508 28.2388 507.046 31.0639 95802
0.2985 0.2985 3262.06 10.4954 63.2405 18.4642 143.738 24.435 21.679 28.0844 443.994 30.9331 97399
0.2995 0.299507 3217.78 10.3202 46.6634 18.0234 84.165 24.0588 -35.2642 27.5855 519.414 30.3699 97881
0.3005 0.300503 3195.23 10.214 57.9878 18.0672 184.516 23.9181 18.3963 27.456 462.157 30.2088 97188
0.3015 0.301497 3164.34 10.08 44.4353 17.7001 125.028 23.4819 4.63732 26.9691 454.635 29.6995 98263
0.3025 0.302497 3127.65 9.93335 55.6465 17.6169 201.251 23.3453 19.2423 26.773 475.78 29.4369 100050
0.3035 0.303506 3120.1 9.87798 46.2343 17.5066 195.468 23.2805 -15.5063 26.6614 516.968 29.2962 100779
0.3045 0.304505 3116.27 9.83528 27.0278 17.5018 226.753 23.2771 56.4266 26.6358 534.204 29.2451 99982
0.3055 0.305503 3122.04 9.81996 -9.40109 17.4501 216.607 23.1926 18.301 26.5537 520.988 29.1669 101559
0.3065 0.306497 3097.66 9.71099 66.7564 17.1437 163.281 22.8491 27.5373 26.1612 525.29 28.7537 100935
0.3075 0.307498 3086.53 9.64896 84.0604 17.0497 169.462 22.8644 -10.1949 26.1038 606.606 28.6494 103762
0.3085 0.308502 3065.65 9.55225 27.4297 16.7977 132.101 22.614 27.6813 25.7974 630.949 28.3163 102951
0.3095 0.309501 3051.1 9.47469 23.8796 16.6188 112.22 22.3436 65.2401 25.5162 599.961 28.0281 104394
0.3105 0.3105 3009.01 9.30933 49.5698 16.3463 118.473 21.7719 30.7886 24.9612 480.284 27.4659 103963
0.3115 0.311497 2982.27 9.19789 68.4948 16.1478 116.106 21.5338 6.23789 24.6756 490.392 27.1457 105936
0.3125 0.3125 2930.82 9.01525 65.6462 15.902 148.653 21.337 -46.6583 24.3624 575.887 26.7437 105717
0.3135 0.313498 2928.23 8.97656 47.4924 15.732 101.834 21.1345 -2.32755 24.1472 563.211 26.5331 106776
0.3145 0.314504 2897.21 8.85377 39.7836 15.6069 141.868 20.9138 52.868 23.8957 549.946 26.2415 108733
0.3155 0.315499 2888.62 8.80049 28.2377 15.3294 57.4063 20.7088 27.8935 23.6299 596.751 25.9654 105891
0.3165 0.3165 2875.57 8.73131 31.7449 15.2822 90.9149 20.5393 -4.14696 23.4684 553.009 25.7912 111072
0.3175 0.317506 2855.18 8.64316 51.955 15.0581 57.2631 20.2966 68.7118 23.1822 563.507 25.4836 108121
0.3185 0.318499 2842.6 8.57693 28.3068 14.8862 31.6255 20.0744 8.59608 22.9399 551.794 25.233 110484
0.3195 0.319501 2827.04 8.50098 27.7237 14.6751 -5.97972 19.7267 44.3996 22.5992 490.046 24.8985 110817
0.3205 0.320498 2817.47 8.44313 21.2337 14.4658 -57.9707 19.3488 -11.5418 22.252 402.665 24.5737 111088
0.3215 0.321499 2819.93 8.42651 34.5578 14.421 -64.9041 19.3983 8.06683 22.2553 461.832 24.5555 112635
0.3225 0.322501 2819.11 8.40175 54.3612 14.3242 -89.2928 19.4122 -21.058 22.2117 530.694 24.4896 113202
0.3235 0.323504 2811.29 8.35192 38.605 14.2507 -84.2632 19.2898 60.5877 22.0804 518.344 24.3463 113863
0.3245 0.324503 2761.43 8.17972 40.3438 14.0222 -51.4771 19.0195 33.9137 21.7298 551.511 23.9301 114045
0.3255 0.325499 2758.67 8.14464 40.8224 13.9793 -43.7949 18.8895 45.0244 21.6136 513.319 23.8138 114828
0.3265 0.326503 2733.55 8.04721 78.0981 13.9353 14.7659 18.8183 15.2666 21.5003 537.319 23.6531 116431
0.3275 0.327504 2675.22 7.8551 73.0399 13.4631 -50.3036 18.3313 -74.656 20.9082 576.856 23.0093 116442
0.3285 0.328504 2660.49 7.79018 35.8296 13.3961 -29.0559 18.3238 28.9699 20.8428 636.133 22.9039 116955
0.3295 0.329498 2644.68 7.718 -15.7751 13.1546 -84.4774 17.9521 50.2816 20.4763 571.518 22.548 117028
0.3305 0.330497 2679.44 7.80225 -25.4213 13.0562 -200.099 17.9625 151.195 20.4887 590.694 22.604 119061
0.3315 0.331501 2715.91 7.87683 -7.00262 13.1289 -231.499 17.8183 48.7919 20.4724 434.517 22.6587 120060
0.3325 0.332504 2681.29 7.75738 60.7143 12.8327 -274.713 17.5144 -4.56882 20.1015 456.955 22.2564 119737
0.3335 0.333501 2667.18 7.69118 114.501 12.8569 -209.774 17.3951 -133.761 20.005 409.145 22.1411 120531
0.3345 0.3345 2583.35 7.42852 98.921 12.495 -163.586 16.9953 -153.233 19.47 474.423 21.5034 121704
0.3355 0.335503 2568.08 7.3602 46.2672 12.5059 -101.052 17.0464 -56.1966 19.4661 530.77 21.4526 122761
0.3365 0.336503 2539.68 7.25196 30.8447 12.3914 -68.0539 16.7006 52.1555 19.1496 429.526 21.1266 122472
0.3375 0.337499 2552.86 7.27256 6.71968 12.2902 -134.111 16.7187 106.257 19.1319 484.874 21.1123 122985
0.3385 0.338498 2551.91 7.24797 34.3512 12.2264 -145.507 16.6195 80.845 19.0317 469.676 21.0121 125380
0.3395 0.339503 2526.66 7.16012 45.8503 11.9135 -223.773 16.3284 54.3371 18.6786 494.847 20.6439 125223
0.3405 0.3405 2509.69 7.09227 56.8753 11.7897 -227.085 16.1907 27.2702 18.5068 507.905 20.4507 125178
0.3415 0.341499 2460.25 6.93653 71.9123 11.4289 -271.694 15.7779 -19.8389 18.0234 515.159 19.931 127059
0.3425 0.342503 2461.19 6.91635 15.1777 11.4237 -257.928 15.7337 -2.80225 17.984 501.651 19.8863 127957
0.3435 0.343498 2483.45 6.95985 8.43655 11.4693 -272.852 15.8262 -17.8284 18.0821 515.618 19.9968 126732
0.3445 0.344497 2466.05 6.88911 13.9876 11.4444 -225.499 15.7675 20.3523 17.9977 528.723 19.8794 129639
0.3455 0.3455 2506.88 6.98697 -4.56121 11.496 -283.728 15.912 72.0326 18.1596 544.842 20.0774 129826
0.3465 0.346504 2512.74 6.98256 29.8866 11.4888 -284.723 15.8904 28.9687 18.1409 538.621 20.0595 130875
0.3475 0.347502 2477.69 6.86534 53.1926 11.3189 -269.56 15.6536 23.7245 17.8636 538.168 19.7461 130686
0.3485 0.348502 2470.69 6.82747 53.1203 11.2321 -280.199 15.5551 -40.0764 17.7477 542.386 19.6211 132211
0.3495 0.349504 2463.5 6.78972 26.0388 11.1938 -266.034 15.5725 -27.7422 17.7207 594.13 19.569 132768
0.3505 0.350503 2444.28 6.71417 26.4933 11.0435 -279.036 15.2502 -25.7921 17.4248 507.425 19.274 132957
0.3515 0.351501 2448.65 6.70749 51.7263 11.0942 -247.582 15.3438 -61.0254 17.4982 546.281 19.3303 133987
0.3525 0.352498 2417.01 6.59499 54.4916 10.9448 -229.914 14.8958 -57.087 17.1078 397.912 18.94 134778
0.3535 0.353498 2409.36 6.55845 53.8308 10.9112 -212.832 14.9823 -48.5942 17.124 490.393 18.9201 135699
0.3545 0.354501 2382.83 6.46441 38.5687 10.7762 -201.205 14.6906 -14.423 16.8416 423.655 18.6251 137380
0.3555 0.355501 2369.6 6.41171 65.1512 10.692 -197.99 14.6046 -22.2025 16.7258 441.381 18.4894 136161
0.3565 0.356499 2363.83 6.37439 41.4372 10.6561 -185.901 14.4296 14.0153 16.586 367.723 18.3552 138792
0.3575 0.3575 2317.02 6.23047 42.8601 10.4408 -168.626 14.1376 -27.0333 16.242 368.972 17.9667 138097
0.3585 0.358498 2329.43 6.24821 55.8963 10.4694 -169.165 14.2485 -12.3013 16.3297 417.19 18.0476 140028
0.3595 0.359503 2314.11 6.18895 17.4615 10.3908 -157.039 14.1336 15.3786 16.1955 416.048 17.8946 141099
0.3605 0.360505 2291.43 6.11195 36.747 10.1965 -190.165 13.8566 -13.7068 15.907 381.701 17.599 140821
0.3615 0.361502 2299.47 6.11383 49.6894 10.2704 -154.973 13.8666 2.05203 15.9443 348.095 17.6391 141756
0.3625 0.362504 2273.29 6.0305 48.3236 10.1285 -152.068 13.801 -15.1574 15.7999 426.169 17.4508 142971
0.3635 0.363499 2256.42 5.969 64.2244 9.97997 -176.387 13.5529 15.4478 15.556 376.893 17.206 142270
0.3645 0.3645 2222.69 5.86453 42.2867 9.80168 -175.127 13.3509 64.0628 15.3037 395.792 16.9184 145311
0.3655 0.365503 2226.01 5.85549 29.4643 9.78135 -178.364 13.2675 -0.629931 15.2402 358.617 16.863 145434
0.3665 0.366501 2190.48 5.74867 37.0484 9.51893 -220.239 12.9505 -0.0509761 14.8835 349.326 16.4853 144547
0.3675 0.367496 2196.96 5.74788 49.7284 9.60729 -173.052 13.0232 -40.426 14.9625 351.033 16.5556 146892
0.3685 0.368499 2157.33 5.63521 40.787 9.31933 -220.23 12.8358 16.0843 14.6674 444.202 16.2151 148113
0.3695 0.369499 2186.87 5.69662 -5.21004 9.40767 -230.751 12.9307 90.856 14.7962 427.434 16.3666 147387
0.3705 0.370498 2176.99 5.66003 3.03287 9.20073 -308.465 12.6937 90.7405 14.5495 401.688 16.1294 149758
0.3715 0.371501 2175.79 5.64579 36.5023 9.13047 -332.412 12.6899 91.9039 14.5085 444.996 16.0795 150099
0.3725 0.3725 2200.38 5.69378 34.0117 9.17755 -352.682 12.7325 29.6804 14.5806 423.136 16.1744 150468
0.3735 0.373498 2157.48 5.57554 31.8687 8.91619 -379.32 12.5533 26.1351 14.2947 510.966 15.8437 150709
0.3745 0.374497 2151.48 5.54367 43.555 8.88083 -370.52 12.4642 -35.2855 14.2102 489.918 15.7525 153108
0.3755 0.375501 2142.47 5.50365 53.9693 8.87335 -338.746 12.4328 -13.1018 14.1659 497.213 15.6895 153189
0.3765 0.376499 2122.34 5.43905 44.2851 8.75224 -343.786 12.3014 -8.39901 14.0004 511.746 15.5042 153547
0.3775 0.377499 2127.94 5.43825 38.2579 8.7957 -319.763 12.3687 -49.4333 14.0582 536.644 15.5524 155424
0.3785 0.378502 2097.01 5.34574 57.5601 8.70621 -281.908 12.2757 -40.2058 13.9141 577.451 15.3671 155313
0.3795 0.379499 2095.6 5.32925 36.0473 8.65845 -292.518 12.2426 6.39289 13.8644 591.494 15.3127 156100
0.3805 0.3805 2074.38 5.25814 40.4931 8.57992 -270.737 12.0635 11.0632 13.6867 553.366 15.1173 157557
0.3815 0.381498 2052.07 5.19016 58.7936 8.49259 -255.263 11.9833 54.8527 13.5651 586.671 14.9668 157692
0.3825 0.382501 2021.79 5.10497 59.9781 8.25749 -302.303 11.7294 47.8194 13.2659 592.286 14.6533 159703
0.3835 0.383505 1994.81 5.03225 47.3355 8.03046 -354.4 11.5538 23.9247 13.0219 640.908 14.3936 160338
0.3845 0.384506 1980.26 4.98243 22.8998 7.90059 -379.423 11.3514 32.3403 12.8193 601.211 14.1888 160167
0.3855 0.3855 1996.67 5.00823 20.1491 7.94836 -379.76 11.3733 14.0491 12.8678 575.972 14.2484 160033
0.3865 0.386496 1993.08 4.98705 4.26145 7.87167 -403.202 11.2561 6.59024 12.7546 549.444 14.1383 162444
0.3875 0.387502 2006.6 4.99893 38.6307 8.01095 -342.553 11.2911 -70.9498 12.8449 492.344 14.2287 164307
0.3885 0.388504 1978.55 4.91934 57.7013 7.84245 -359.903 11.0976 -48.1244 12.6138 498.885 13.978 163882
0.3895 0.389505 1977.9 4.90148 29.2057 7.87086 -328.537 11.0947 -52.625 12.6149 492.931 13.9688 164595
0.3905 0.390501 1984.7 4.9058 8.38278 7.85588 -342.3 11.0682 -36.1341 12.5954 480.665 13.9553 165006
0.3915 0.391501 2019.68 4.96996 23.4404 8.07195 -289.117 11.1641 -5.46609 12.782 389.857 14.1672 166687
0.3925 0.392501 1998.88 4.91124 53.4219 7.89928 -328.669 11.0065 -21.1511 12.5827 411.703 13.9541 167256
0.3935 0.393501 1961.83 4.80745 52.3774 7.77071 -299.997 10.8449 -13.5994 12.374 433.03 13.707 167937
0.3945 0.394496 1935.05 4.73089 57.6538 7.6395 -299.844 10.6845 -1.93875 12.1806 440.149 13.4907 167719
0.3955 0.395497 1935.09 4.71578 53.703 7.67274 -267.961 10.6745 0.740369 12.1809 424.232 13.4838 171636
0.3965 0.396504 1887.36 4.59316 56.3378 7.42448 -286.458 10.4457 -17.1828 11.8708 477.841 13.1332 171093
0.3975 0.3975 1873.6 4.55283 45.6929 7.33518 -295.982 10.4257 20.101 11.7973 540.59 13.0397 170464
0.3985 0.398498 1871.57 4.54055 20.5732 7.26715 -321.159 10.4044 34.6227 11.7477 573.421 12.9869 172113
0.3995 0.399495 1898.64 4.59258 -21.5328 7.35679 -323.08 10.4806 78.7564 11.8611 546.504 13.1189 173232
