### header ###
fiducial parameters:
Omega_m = 0.31
Omega_nu = 0
Omega_de = 0.69
Omega_k = 0
H_0 = 100
w_de = -1
zeff = 0
beta = 0
fgrowth = 0
b_1 = 2
gamma = 0.55
Lx = 3500 Ly = 3500 Lz = 3500
nx = 700 ny = 700 nz = 700
xoffset = -982.047 yoffset = -47.9468 zoffset = 798.097
bins = 400 dk = 0.001
kx_ny = 0.628319 ky_ny = 0.628319 kz_ny = 0.628319
############################
A(data) = 8.9751 (not used)
A(ran) = 8.9771 (used)
Ngal = 435761
weighted Ngal = 0
Nran = 22769125
weighted Nran = 0
SN(data) = 7254.49
SN(ran) = 126.024
SN(data+ran) = 7380.51
############################
13 columns: k_central k_mean P_0(k) sigma^{lin}_{P_0(k)} P^img_1(k) sigma^{lin}_{P_1(k)} P_2(k) sigma^{lin}_{P_2(k)} P^img_3(k) sigma^{lin}_{P_3(k)} P_4(k) sigma^{lin}_{P_4(k)} N_modes
### header ###
0.0005 0 0 0 0 0 0 0 0 0 0 0 0
0.0015 0.0017952 182524 125003 84.6077 212807 -37132.7 199300 38148.4 290418 -200674 345269 3
0.0025 0.00253879 173730 74994.9 90755.5 137640 -4451.56 217302 67850.6 231801 219213 248037 6
0.0035 0.00331552 110960 37903.3 50722.5 91964.8 132007 130672 -43903.2 145202 159826 147629 7
0.0045 0.00420575 85571.4 20392.2 -12659.3 42019.5 51943.6 49679 91437.4 59425.8 -23665.3 64501.5 24
0.0055 0.00557378 107289 19025.4 -9261.56 34265.8 11266.1 43041.8 48257.2 50784.5 -4187.69 56055.7 45
0.0065 0.00659388 125572 18640.8 -8710.53 29838.7 -22758.6 41302 -9348.31 47440.2 21156.9 52699.8 40
0.0075 0.00754703 104406 13416.7 -5985.17 23801 6167 32379.4 -14413.9 36736.3 26957.6 40154 57
0.0085 0.00846663 101786 11957.1 28599.4 21079.9 6707.69 26147 -63728 31432.6 -5413.29 34726.4 75
0.0095 0.00948925 71713.9 7411.76 22295.1 13988.5 14985.3 18717.2 -4617.1 21164 21349.7 22952.8 112
0.0105 0.0105443 56867.6 5609.7 463.131 12417.3 47707.1 15209.5 24823.1 17293.5 -4318.08 18696.7 105
0.0115 0.0114567 57111.5 4912.22 -4528.02 9966.59 26667.2 12541.6 21079.4 14385.7 3727.18 15599.7 144
0.0125 0.0124909 62394.6 4889.21 -3517.05 8943.97 8835.74 11404 32435.5 13345.1 1630.43 14617.2 169
0.0135 0.0133993 68022 4867.71 -5826.99 8204.1 -4415.3 11538.7 -8516.52 13014.5 21654.3 14281.3 180
0.0145 0.0144887 65136.5 4319.47 -1532.45 7083.51 -8308.16 9456.03 -3351.59 10999.3 4671.61 12243.9 267
0.0155 0.0155005 71538.3 4445.16 2269.74 7664.73 -558.346 10058.4 -16107.7 11679.5 5514.18 12913.8 238
0.0165 0.0165335 63849 3722.72 4378.73 6663.75 5711.62 8500.11 -8148.11 9902.84 949.702 10958.6 315
0.0175 0.0174787 62256.1 3446.16 -1146.81 6303.21 9109.92 7278.18 -1035.74 8833.79 -21012.4 10007.4 297
0.0185 0.0184418 66491.7 3471.21 3195.17 6421.54 11915.6 7698.96 3117.77 9145.94 -13112.7 10236.5 388
0.0195 0.0194759 67399 3347.46 561.297 6450.93 20204.4 7981.62 -5288.45 9263.45 -3173.22 10211.6 399
0.0205 0.0204543 67299.8 3189.86 1452.4 6236.74 23386.6 7618.21 2400.05 8855.64 -6237.69 9779.16 462
0.0215 0.0215477 62601.3 2832.52 -1052.43 5617.22 23915.1 7120.1 1851.35 8144.32 4942.2 8874 571
0.0225 0.0225534 57288.8 2479.92 2962.77 4897.86 21773.1 5991.19 -1332.56 6945.24 -4631.37 7654.55 510
0.0235 0.0234893 55054.3 2314.27 3578.92 4828.62 30183 6166.24 -1487.11 6981.53 8460.94 7523.89 555
0.0245 0.0243964 54402 2175.25 2815.94 4400.34 23699 5661.11 9725.96 6428.47 8695.45 6946.36 592
0.0255 0.025473 54245.7 2138.32 4282.51 4630.57 38086.6 5830.24 -1859.19 6589.2 5327.9 7090.74 837
0.0265 0.026529 47663.4 1806.38 4917.47 3893.95 32553.4 4920.38 -5367.32 5562.54 5708.03 5980.9 723
0.0275 0.0274997 44332 1635.46 -916.695 3599.98 33903.5 4578.53 7498.61 5154.25 7132.89 5510.13 826
0.0285 0.0284809 47568 1675.16 -1861.67 3616.51 33078.7 4522.25 1956.87 5121.5 2772.73 5527.54 831
0.0295 0.029469 45681.5 1527.55 -963.784 3124.17 22204.7 3945.09 13223.4 4505.78 3659.54 4880.8 996
0.0305 0.0305325 48800.7 1572.7 -269.558 3235.63 24706.8 4075.67 2247.72 4642.85 3618.77 5036.99 1041
0.0315 0.0315051 45325.4 1407.5 2794.33 2844.25 19490.3 3699.24 2240.32 4184.03 9858.24 4510.65 1036
0.0325 0.0324619 44520.8 1339.94 -768.274 2716.3 20088.8 3455.21 -804.736 3933.31 4979.19 4265.18 1059
0.0335 0.0334508 46377.6 1346.76 -1689.46 2646.02 16306.8 3382.79 7672.87 3867.52 5171.12 4207.87 1302
0.0345 0.034512 48740.4 1363.91 281.541 2591.01 12401.6 3250.09 -579.573 3762.29 -14.4491 4141.58 1339
0.0355 0.0355335 47249 1285.71 1854.35 2448.24 12264 3109.47 -2892.76 3580.79 2594.79 3926.49 1365
0.0365 0.0364712 45439.7 1204.23 1139.61 2318.49 13299.2 2922.73 593.705 3367.78 1414.89 3693.91 1308
0.0375 0.0374489 43548.9 1125.32 12.2918 2182.83 13893.7 2710.01 -145.01 3136.1 -1232.46 3450.6 1579
0.0385 0.0384753 41256.7 1045.14 2696.11 2079.78 16574.7 2566.12 -825.886 2960.88 -1627.43 3250.69 1662
0.0395 0.0395024 38895.2 960.639 2220.9 1921.1 16075.1 2401.18 -364.859 2755.55 814.999 3010.83 1683
0.0405 0.0405035 36933.1 894.045 224.415 1822.58 17562.2 2289.91 2728.98 2614.85 2060.91 2843.24 1822
0.0415 0.0415245 36323.9 856.27 1230.77 1728.37 16275.7 2138.66 1019.73 2458.25 -751.398 2690.48 1887
0.0425 0.0425015 35813.2 826.784 989.493 1692.79 17324.2 2154.91 1629.05 2448.82 4383.22 2650.22 1920
0.0435 0.0434921 36551.1 818.88 -690.031 1635.08 14543.6 2106.7 1886.74 2394.14 5900.02 2593.29 2005
0.0445 0.0444852 34900.7 760.503 -652.725 1479.69 11254.8 1883.26 3665.32 2158.95 2859.82 2356.81 2151
0.0455 0.0454803 36473.7 777.624 122.781 1522.14 12373.5 1944.46 1332.69 2223.1 3769.17 2422.4 2274
0.0465 0.0464867 35512.2 738.852 -24.8868 1424.85 10416 1832.63 820.355 2095.33 4275.86 2285.04 2311
0.0475 0.0474925 34341.7 703.114 1197.91 1392.02 12875.9 1773.79 -679.218 2025.84 3504.71 2204.65 2568
0.0485 0.0485184 36304.8 725.668 1736.43 1411.37 11665.4 1797.29 -2140.48 2059.65 3088.6 2248.61 2493
0.0495 0.0494948 31021.3 612.542 58.6285 1238.65 13699.3 1581.55 511.627 1798.95 3978.39 1949.4 2644
0.0505 0.0505063 32316 623.177 84.4251 1238.46 12658.4 1554.73 2571.63 1783.89 1156.89 1948.32 2829
0.0515 0.0514906 32115.8 608.622 1205.62 1222.77 13565.5 1553.53 -238.843 1771.72 3203.2 1924.87 2784
0.0525 0.052493 31130.9 577.611 609.813 1150.74 12422.9 1446.29 1220.84 1657.81 1334.31 1809.45 3055
0.0535 0.0534895 31323.3 567.863 -681.951 1109.02 10409.4 1418.82 1923.9 1622.07 3401.88 1767.35 3009
0.0545 0.0544861 30783.5 548.669 -152.181 1077.44 11004.7 1337.22 380.998 1543.79 -673.736 1695.41 3336
0.0555 0.0555087 30882.8 538.933 634.957 1041.57 9497.51 1295.87 -1509.25 1499.69 -662.654 1649.92 3349
0.0565 0.0564767 29249.8 502.562 174.893 984.336 10203.1 1223.63 -10.3494 1412.55 -484.892 1551.19 3324
0.0575 0.0574797 29612.8 499.051 219.816 965.32 9207.69 1193.8 1981.58 1384.58 -1394.81 1525.69 3639
0.0585 0.0584928 29646 490.996 330.632 953.597 9501.57 1195.76 -539.839 1378.27 451.932 1511.78 3846
0.0595 0.0595102 29852.8 485.297 -11.6447 926.219 8121.06 1135.21 1043.2 1325.12 -2740.28 1467.17 3787
0.0605 0.0604947 27985.5 450.793 1142.3 894.228 11006.4 1098.1 -594.829 1269.98 -1739.81 1397.05 3930
0.0615 0.0614831 28402.1 447.406 568.17 867.938 9012.61 1087.08 -740.029 1253.85 270.5 1376.02 4083
0.0625 0.062491 27274.2 425.365 -139.737 847.146 10991.2 1050.78 1607.69 1210.1 -447.658 1326.1 4303
0.0635 0.063506 27725.1 424.415 -205.599 838.495 10189.7 1071.75 1466.65 1223.27 3164.55 1330.5 4470
0.0645 0.0645175 27682.7 416.899 666.597 818.042 9834.63 1013.95 -11.8592 1171.32 -775.451 1287.03 4479
0.0655 0.0655028 27077.8 401.692 542.213 790.499 9724.06 999.312 -2247.03 1145.9 1652.37 1250.99 4636
0.0665 0.0664888 26760.4 392.775 -375.168 785.449 11097.4 979.701 2962.69 1125.52 292.238 1230.23 4653
0.0675 0.0674966 27341.9 391.689 -961.07 752.222 7771.92 953.98 609.939 1097.29 1515.67 1202.05 5220
0.0685 0.0685273 27138.5 384.234 1095.86 747.079 8858.16 924.72 513.372 1070.81 -1082.13 1178.79 5029
0.0695 0.0694932 26546.6 368.995 1095.62 702.667 6919.43 887.052 -1332.49 1023.87 775.965 1124.58 5040
0.0705 0.0704803 25748 355.361 164.098 700.747 9630.23 859.957 658.485 996.038 -1760.1 1096.92 5475
0.0715 0.0714879 24968.3 338.942 422.814 658.662 8213.43 803.58 -899.754 935.841 -2500.99 1034.75 5509
0.0725 0.0724982 24254.2 325.246 932.265 640.263 8868.43 793.619 -584.131 916.209 -619.668 1006.17 5916
0.0735 0.0735127 23113.3 305.921 -122.83 599.04 8217.57 724.347 811.677 844.964 -3094.79 935.832 5721
0.0745 0.0744914 23751.7 309.112 292.39 598.994 7532.17 738.194 1627.88 856.983 -1443.1 945.025 6028
0.0755 0.0754916 23400.8 301.895 626.156 592.481 8533.34 712.097 -867.156 832.158 -3691.94 923.129 6183
0.0765 0.0764884 22778.2 289.847 364.361 574.123 8792.6 710.6 -377.094 819.756 -653.896 899.781 6330
0.0775 0.0774996 21830.5 274.32 102.948 544.071 8512.86 673.514 1197.27 776.789 -605.712 852.354 6583
0.0785 0.0784865 22287.9 275.514 -263.272 538.136 7520.64 676.177 2019.25 778.155 626.942 852.061 6549
0.0795 0.0794732 22143.4 269.805 391.281 521.935 6868.57 648.387 873.822 750.614 -618.694 826.071 6828
0.0805 0.0804811 22115.4 266.201 3.96272 518.128 7156.66 658.594 259.606 755.026 1687.36 824.691 7147
0.0815 0.0814996 21555.5 256.262 426.838 498.486 6925.29 634.469 308.481 727.095 1758.49 793.973 7386
0.0825 0.0825061 20483.7 240.552 458.589 467.644 6503.14 599.806 239.671 685.538 2364.57 747.1 7227
0.0835 0.0835016 21003.7 244.044 334.373 477.321 6993.66 617.579 924.623 703.026 3376.04 763.503 7798
0.0845 0.0844961 19612.6 224.724 277.519 434.986 5940.94 561.965 472.474 641.089 2821.08 697.847 7371
0.0855 0.0854894 18984.5 215.521 653.164 420.807 6139.64 552.957 221.797 626.241 4407.11 677.626 8256
0.0865 0.086507 19310.9 216.428 -94.4549 421.847 6233.54 546.332 -185.935 622.017 3131.42 675.801 8037
0.0875 0.0874906 18348.6 203.904 426.944 402.904 6646.55 523.635 441.988 594.242 3527.23 643.408 8155
0.0885 0.0884921 18250.9 199.648 175.819 386.268 5504.34 499.128 303.596 569.402 2635.5 619.836 8718
0.0895 0.089499 18263.3 197.699 124.848 383.941 5699.49 497.195 412.171 566.42 2885.69 615.814 8571
0.0905 0.0904919 18258 195.36 466.865 378.611 5650.28 483.78 -406.466 553.991 1754.89 604.683 8932
0.0915 0.0915083 17586.5 186.768 211.558 368.399 6377.13 470.965 -839.77 537.647 1999.57 584.919 9285
0.0925 0.0925082 16733.2 175.598 311.731 344.472 5852.64 434.47 -502.825 498.791 807.932 545.268 9204
0.0935 0.0935033 16811.6 175.083 218.985 348.338 6632.95 438.228 622.213 502.272 781.347 548.182 9349
0.0945 0.0944804 16825.2 173.011 -337.569 341.236 6136.13 433.044 651.116 495.612 1348.74 540.329 9564
0.0955 0.0954927 16757.6 170.026 317.084 329.472 5290.74 408.893 407.128 473.357 -515.707 520.961 10155
0.0965 0.0964943 16391 164.277 131.803 316.077 4736.99 401.879 721.852 461.662 1104.15 505.21 9913
0.0975 0.0974914 16685.1 165.653 -85.0821 320.507 5115.74 406 283.039 466.541 938.758 510.598 10476
0.0985 0.0985024 16120.8 158.226 361.859 303.735 4554.89 385.559 263.663 443.35 942.689 485.599 10575
0.0995 0.0995033 15727.3 152.917 392.583 294.75 4628.84 375.121 -294.579 430.61 1158.31 470.973 10882
0.1005 0.100512 15450.5 148.747 221.877 286.778 4508.37 369.677 514.342 422.347 2006.84 460.331 10875
0.1015 0.101503 15134.7 144.585 234.373 282.121 5052.24 355.041 -141.648 408.321 519.936 447.066 11118
0.1025 0.102508 14640.6 138.632 370.592 271.849 5005.37 350.378 247.307 399.209 2132.77 433.812 11575
0.1035 0.103498 14606.5 136.885 197.188 267.734 4902.84 343.447 313.368 392.125 1776.14 426.856 11364
0.1045 0.104501 14364.4 133.365 -19.3184 261.327 4919.35 333.888 22.5828 381.629 1510.46 415.759 12093
0.1055 0.10551 14068 129.226 348.614 251.484 4555.65 318.831 -238.385 365.874 912.77 399.932 12067
0.1065 0.106497 13692.2 124.852 289.406 245.392 4760.26 317.703 -41.4737 361.292 2314.77 391.971 12054
0.1075 0.107499 13601.6 122.882 -197.442 241.782 4829.67 309.027 530.616 352.944 1503.77 384.176 12807
0.1085 0.108501 13490.6 120.58 139.672 235.649 4516.54 300.557 386.684 343.906 1279.01 375.011 12736
0.1095 0.109503 13398.9 118.429 72.1847 228.519 4034.52 286.176 -217.529 330.44 64.3659 362.977 12933
0.1105 0.110502 13228.2 115.921 250.563 224.674 4117.25 285.247 -186.651 327.405 895.383 357.992 13428
0.1115 0.111509 12967.5 112.666 191.708 218.54 4106.46 273.77 312.591 315.75 127.572 346.506 13453
0.1125 0.1125 12920.1 111.421 33.104 217.859 4409.94 272.98 -355.908 314.327 216.285 344.462 13668
0.1135 0.113491 13091.3 111.69 65.224 214.684 3846 263.004 212.313 306.547 -1170.35 339.097 13791
0.1145 0.114486 12843.1 108.817 -9.85512 212.181 4312.56 262.817 49.1671 304.076 -446.751 334.518 14205
0.1155 0.115493 12511.5 105.081 284.431 203.623 3992.89 249.592 -866.011 290.369 -1027 320.71 14776
0.1165 0.116498 12279.4 102.636 484.308 203.111 4717.02 250.136 97.1851 289.128 -630.433 317.895 14553
0.1175 0.117473 12033.4 99.619 -200.885 195.925 4389.22 241.4 1048.91 279.416 -630.611 307.407 14568
0.1185 0.118491 12509.6 102.286 -339.321 197.824 3875.57 246.22 917.351 284.892 -238.432 313.334 16015
0.1195 0.119503 12478.7 100.975 160.337 193.556 3520.16 241.354 -55.0098 279.521 -225.807 307.755 15270
0.1205 0.120507 12286.9 98.6154 269.629 189.202 3495.53 236.403 -371.184 273.531 -107.346 300.935 15999
0.1215 0.1215 12354.3 98.4847 -90.2566 191.001 3897.81 240.146 62.9001 276.598 316.971 303.235 15670
0.1225 0.122507 12291.1 97.1143 29.0248 187.233 3683.96 233.197 -86.2654 269.874 -232.282 296.953 16887
0.1235 0.123522 12086.6 95.0298 230.726 185.632 4148.18 228.507 -451.241 264.91 -724.31 291.882 16407
0.1245 0.124498 11854.7 92.6527 334.022 183.462 4532.38 228.844 -111.211 263.29 64.5094 288.325 16306
0.1255 0.125499 11773.8 91.1873 29.0166 179.677 4322.59 223.817 350.743 257.881 -46.2566 282.739 17523
0.1265 0.126501 11797.8 90.5063 -291.568 176.61 3978 219.863 796.517 253.905 -144.621 278.84 17154
0.1275 0.127506 12013.4 91.3735 275.39 178.289 4011.44 223.974 260.913 257.754 315.658 282.356 18007
0.1285 0.128503 11757.6 88.5049 235.805 170.295 3422.76 214.816 -267.974 247.499 397.258 271.442 17496
0.1295 0.129499 11150 83.5332 312.089 163.4 3802.13 205.914 -73.546 236.588 471.13 258.828 18405
0.1305 0.13049 10898.5 81.0693 59.1884 158.861 3805.94 198.294 -102.094 228.545 17.513 250.651 18100
0.1315 0.131488 11054.4 81.5135 49.4411 158.698 3641.46 197.731 416.874 228.352 -119.352 250.831 19059
0.1325 0.132493 10682.9 78.1532 -40.1858 151.728 3440.66 188.088 196.466 217.75 -364.296 239.657 18957
0.1335 0.133491 10714.5 77.5833 43.5515 148.229 2919.94 184.469 462.304 213.968 -310.315 235.827 19468
0.1345 0.134507 10745.1 77.2313 298.576 147.627 2943.46 183.895 -214.98 213.191 -259.635 234.897 19953
0.1355 0.13551 10538.8 75.2657 80.4602 144.837 3101.47 180.197 -303.114 208.713 -260.774 229.792 19956
0.1365 0.136499 9931.99 70.4419 173.1 135.521 2932.11 167.111 41.5312 194.235 -615.96 214.418 19723
0.1375 0.137496 10178.2 71.5895 21.2904 137.158 2861.82 170.432 389.56 197.685 -337.922 217.88 20946
0.1385 0.138511 10018.1 70.0883 224.879 135.645 3126.69 168.001 399.313 194.695 -405.01 214.441 20955
0.1395 0.139498 9794.6 67.9711 184.622 131.198 2954.07 164.8 -559.354 190.08 178.805 208.589 20506
0.1405 0.140483 9500.23 65.5691 139.975 127.869 3165.3 160.187 80.6175 184.553 132.299 202.351 21447
0.1415 0.141484 9357.16 64.0522 56.4291 124.204 2929.29 157.31 532.823 180.72 533.198 197.706 21771
0.1425 0.142494 9537.9 64.7445 -106.62 124.616 2788.94 156.874 50.4734 180.867 239.844 198.469 22470
0.1435 0.143509 9293.47 62.5877 50.1305 119.734 2522.22 152.873 533.099 175.53 745.928 192.057 22519
0.1445 0.144499 9387.52 62.8778 94.9907 121.466 2843.39 153.24 -142.497 176.41 350.616 193.341 22218
0.1455 0.145505 9166.14 60.7964 181.51 115.286 2255.64 147.198 133.306 169.271 664.226 185.507 23559
0.1465 0.146507 9320 61.4913 -41.1785 117.797 2592.43 148.446 -198.738 171.241 239.584 188 23044
0.1475 0.147505 8946.18 58.6477 229.502 112.467 2522.64 141.33 -286.997 163.182 134.514 179.256 23649
0.1485 0.148499 8856.61 57.6952 101.77 111.19 2607.89 141.081 40.5602 162.135 532.047 177.487 23640
0.1495 0.149495 8640.96 55.8509 -54.2729 106.737 2335.12 135.192 440.71 155.732 391.732 170.794 24457
0.1505 0.1505 8944.58 57.4028 -38.7035 109.334 2333.68 138.094 447.858 159.351 273.214 174.998 24591
0.1515 0.151499 8761.44 55.7213 143.363 104.27 1831.44 132.673 208.346 153.172 398.19 168.402 25020
0.1525 0.152505 8798.1 55.6512 65.9502 105.193 2086.73 134.34 -133.2 154.565 620.917 169.476 25297
0.1535 0.153501 8694.35 54.5866 182.268 102.326 1862.39 130.24 -176.849 150.292 424.275 165.173 25452
0.1545 0.154504 8483.15 53.0682 -7.88044 101.664 2355.17 128.549 -129.471 148.095 340.6 162.437 26061
0.1555 0.155499 8287.45 51.5884 144.047 99.5996 2507.46 124.819 -17.4454 144.069 68.7771 158.209 26128
0.1565 0.156495 8153.66 50.4211 180.992 97.2809 2438.15 122.85 -261.659 141.411 333.126 154.969 26331
0.1575 0.157497 8079.75 49.6766 127.931 96.1009 2494.57 120.295 163.266 138.854 37.2488 152.481 27345
0.1585 0.158499 7992.58 48.8845 155.538 95.088 2607.93 118.683 -30.887 136.992 -29.1781 150.427 26980
0.1595 0.159497 7803.61 47.3551 123.817 91.5311 2366.35 116.07 88.3014 133.348 467.943 145.924 27777
0.1605 0.1605 7618.04 46.0665 -71.186 90.1973 2635.44 112.909 190.059 130.022 103.47 142.495 28224
0.1615 0.161505 7727.11 46.2115 75.0565 88.0365 2020.22 111.118 293.773 128.247 213.625 140.865 28075
0.1625 0.162497 7542.31 44.8539 33.318 85.8275 2047.92 109.929 308.579 126.059 711.895 137.812 28590
0.1635 0.163499 7682.42 45.3514 27.6966 86.0873 1916.34 109.757 175.856 126.264 516.908 138.402 29163
0.1645 0.164491 7585.34 44.4407 -27.8318 83.2513 1594.47 107.609 265.174 123.432 855.768 135.135 28996
0.1655 0.165505 7553.78 44.007 61.1944 82.8357 1693.14 106.632 -22.7175 122.397 757.15 134.03 30777
0.1665 0.166507 7440.07 43.0881 139.79 80.9398 1614.19 105.253 -182.856 120.384 1055.82 131.538 29211
0.1675 0.167499 7387.76 42.5637 191.831 80.6126 1799.56 102.459 -186.114 118.064 387.622 129.569 30922
0.1685 0.168508 7217.33 41.4158 10.3492 79.563 2039.79 102.142 -109.023 116.941 783.134 127.68 30867
0.1695 0.169499 7119.78 40.623 -25.841 78.1178 2036.48 100.055 234.413 114.633 706.425 125.212 30852
0.1705 0.170492 7233.3 40.9998 -49.232 78.5327 1993.75 100.074 -14.5084 114.952 530.782 125.823 31257
0.1715 0.171495 7183.13 40.5535 211.842 78.3297 2182.39 98.3138 -296.122 113.408 112.208 124.469 32608
0.1725 0.172509 7174.05 40.2714 280.423 77.7814 2174.63 97.9268 -380.061 112.837 209.24 123.731 32361
0.1735 0.173504 6892.98 38.5352 12.1053 75.2822 2327.69 94.6749 138.35 108.886 221.258 119.217 32508
0.1745 0.174498 6879.24 38.3174 -108.223 75.4966 2520.65 94.2526 178.958 108.512 41.7647 118.894 32791
0.1755 0.175498 6891.93 38.0362 33.137 73.6669 2153.99 92.1446 157.377 106.367 16.282 116.808 33633
0.1765 0.176501 6933.86 38.0809 148.619 74.0349 2250.16 92.4391 43.3788 106.696 -17.9 117.158 33984
0.1775 0.177503 6674.14 36.4252 88.3196 70.6038 2102.3 88.3623 -164.296 101.964 36.9168 111.939 34069
0.1785 0.178498 6779.42 36.8284 93.2732 71.8452 2258.11 90.4017 86.7587 103.978 226.308 113.853 34536
0.1795 0.179504 6523.84 35.249 65.5957 68.7908 2188.1 86.2236 -19.6722 99.3054 109.943 108.852 35343
0.1805 0.180501 6557.97 35.2419 6.83853 68.8485 2197.88 87.3707 395.093 100.168 471.202 109.381 34990
0.1815 0.181505 6679.04 35.568 -75.3024 68.0703 1828.84 86.4988 367.915 99.4912 404.93 108.99 36243
0.1825 0.182502 6694.98 35.4347 -29.2917 67.6227 1772.13 86.2851 125.165 99.1319 507.028 108.538 35694
0.1835 0.183504 6650.44 35.0483 46.6828 67.3941 1904.39 86.1399 -132.579 98.766 599.107 107.944 37087
0.1845 0.184506 6631.97 34.7049 158.218 65.9237 1667.12 84.1881 -283.586 96.7803 500.381 106.021 36651
0.1855 0.185507 6368.82 33.265 57.5556 64.6696 2038 82.2001 109.934 94.2568 478.587 102.975 37818
0.1865 0.18651 6492 33.6779 -4.96664 64.904 1919.66 81.915 49.3991 94.3284 240.941 103.412 37267
0.1875 0.187501 6410.69 33.0263 93.4781 62.9819 1677.97 80.5884 285.435 92.5044 555.624 101.215 38334
0.1885 0.1885 6437.49 32.9965 -0.365261 63.0688 1727.2 80.839 174.677 92.69 622.522 101.334 38223
0.1895 0.189495 6400.42 32.5844 0.234696 61.6008 1512.35 79.2919 129.752 90.9469 667.571 99.5145 39064
0.1905 0.1905 6276.82 31.7873 134.398 60.0352 1460.87 77.5943 26.6976 88.8727 759.601 97.1616 39609
0.1915 0.191498 6176.58 31.1414 29.853 59.1566 1535 76.7092 -15.8404 87.6616 873.161 95.658 39576
0.1925 0.192504 6130.06 30.7576 130.017 58.5996 1587.48 75.1917 -221.744 86.2318 604.866 94.2992 40909
0.1935 0.193505 5959.04 29.7874 117.021 57.3173 1711.35 73.6164 -4.34112 84.2435 667.864 91.9428 40191
0.1945 0.194501 5951.97 29.5804 49.3615 56.6622 1623.22 73.2643 35.0764 83.6971 817.173 91.2605 41232
0.1955 0.195498 6030.61 29.8064 -54.6435 56.8753 1587 73.0348 416.053 83.7203 622.118 91.5017 40873
0.1965 0.196497 6028.55 29.6413 48.3952 56.6277 1603.65 72.9117 -46.3346 83.4637 699.613 91.1491 42816
0.1975 0.197502 5930.76 28.9637 76.29 54.5956 1347.55 70.6696 -99.7398 80.9234 744.774 88.468 41727
0.1985 0.19849 5831.92 28.3706 16.1351 53.9837 1485.79 69.4104 212.473 79.5568 617.284 86.9735 42610
0.1995 0.199499 5818.7 28.1449 22.1187 53.2266 1371.95 69.114 30.5955 79.0007 829.776 86.2475 43863
0.2005 0.200501 5816.4 27.9573 61.3275 52.3105 1199.61 67.9436 -8.87376 77.7985 769.638 85.0943 43302
0.2015 0.201501 5706.09 27.2967 114.862 51.1968 1217.28 66.1501 118.834 75.8694 640.387 83.0552 44487
0.2025 0.202497 5574.89 26.5795 69.183 50.4765 1383.63 65.2986 -76.583 74.693 728.855 81.5592 43759
0.2035 0.203491 5582.42 26.4487 87.6518 49.7509 1240.9 63.9952 6.35551 73.4876 537.968 80.4972 45282
0.2045 0.204497 5477.79 25.8944 85.2829 49.6221 1501.8 64.0792 4.12775 73.2337 723.334 79.8722 45483
0.2055 0.205499 5333.9 25.0585 83.5701 47.5869 1326.3 61.3904 -100.459 70.2974 633.076 76.8136 46138
0.2065 0.206502 5314.71 24.9107 126.35 48.1062 1579.69 61.8444 100.227 70.7045 635 77.0972 46227
0.2075 0.207493 5264.55 24.5028 -77.7043 46.6235 1334.23 60.3834 28.6848 69.0173 725.293 75.3135 46236
0.2085 0.208503 5316.13 24.6324 -32.8184 46.8611 1342.78 60.7764 384.195 69.4441 763.514 75.7452 48361
0.2095 0.209504 5406.01 24.8701 -22.1303 46.5095 1104.44 60.6318 62.3947 69.3325 798.006 75.7734 46812
0.2105 0.210503 5413.72 24.8153 109.175 46.8975 1273.09 60.4801 -194.281 69.3261 608.667 75.8229 48813
0.2115 0.211497 5257.13 24.025 140.457 45.8439 1372.11 59.5775 -276.48 67.9839 822.65 74.0777 47215
0.2125 0.21249 5102.68 23.2183 37.9219 44.5597 1420.79 57.5504 -19.8587 65.7524 684.758 71.6906 50004
0.2135 0.213503 5074.35 22.9649 64.9711 43.9016 1363.96 56.267 -21.8052 64.5143 490.24 70.5315 49509
0.2145 0.214498 5053.79 22.8231 76.0915 44.3084 1594.29 56.3961 75.8033 64.6517 404.198 70.6223 49660
0.2155 0.215501 5056.54 22.6594 33.9231 43.1283 1289.25 55.6379 73.3307 63.6848 610.416 69.5605 50841
0.2165 0.216498 5050.21 22.5443 1.22782 43.1537 1375.72 55.3432 152.553 63.4272 507.515 69.314 50424
0.2175 0.217503 5008.71 22.2179 25.557 42.0011 1180.91 54.1856 63.0064 62.0958 570.888 67.9074 52231
0.2185 0.218503 4996.9 22.0571 50.9685 41.6085 1151.22 53.5018 -26.5147 61.4145 488.093 67.2447 51078
0.2195 0.219501 4871.31 21.4013 50.7117 40.295 1093.32 51.9875 95.3533 59.6188 535.966 65.2444 52791
0.2205 0.220507 4920.71 21.5314 6.5233 40.7399 1177.4 52.2647 57.1816 60.0152 446.735 65.7158 52969
0.2215 0.2215 4839.5 21.0611 12.3329 39.5348 1046.61 50.9705 -59.6067 58.5007 503.323 64.0671 52704
0.2225 0.222501 4792.24 20.763 102.539 38.9962 1046.89 49.9606 60.9234 57.4789 372.542 63.0429 54051
0.2235 0.223499 4898.31 21.1306 87.2795 39.7435 1090.9 50.9004 -49.0329 58.5525 381.558 64.2098 53938
0.2245 0.224498 4739.64 20.3625 92.3587 38.4096 1095.16 49.0611 70.5459 56.4652 327.897 61.9321 54735
0.2255 0.225491 4667.94 19.9728 -54.2695 37.7901 1117.46 48.4319 28.6366 55.6357 403.963 60.9365 54774
0.2265 0.226499 4542.15 19.3421 70.5232 36.4571 1031.8 47.1267 24.7062 53.9929 542.9 59.048 56911
0.2275 0.227498 4565.84 19.3751 105.636 36.7695 1125.47 47.4594 15.2437 54.34 548.299 59.3772 54879
0.2285 0.228491 4552.43 19.2094 -1.84852 36.1323 1010.78 46.5506 19.7221 53.4227 469.07 58.4954 57210
0.2295 0.229498 4574.23 19.2137 41.4788 36.095 1005.01 46.0851 95.4935 53.0911 290.612 58.2789 57375
0.2305 0.230496 4513.04 18.9086 106.261 35.9577 1147.84 45.9879 -220.044 52.8264 373.997 57.8355 57604
0.2315 0.231501 4366.96 18.2365 92.4285 34.9448 1209.7 44.5216 -170.808 51.1437 319.832 55.9769 58629
0.2325 0.232502 4313.13 17.9631 32.8692 34.7932 1328.91 44.3933 68.1559 50.8673 383.087 55.5498 58560
0.2335 0.233504 4374.6 18.1 -86.0319 34.5469 1163.38 43.9131 106.901 50.5244 261.098 55.3727 59305
0.2345 0.234497 4432.55 18.2342 -19.0488 34.3628 1006.89 44.2887 275.649 50.8082 472.379 55.6028 59196
0.2355 0.235493 4487.54 18.366 -6.02189 34.4038 945.634 44.2518 206.828 50.8596 412.106 55.7497 60063
0.2365 0.236499 4413.57 17.9727 124.699 33.3131 795.08 43.4385 -75.1395 49.7457 612.951 54.4521 61537
0.2375 0.237504 4391.88 17.8042 40.7198 33.0123 798.488 42.7932 -29.1463 49.1196 500.791 53.8403 61224
0.2385 0.238501 4364.59 17.6392 66.0774 33.0272 908.102 42.8839 68.1845 49.1043 574.334 53.7064 61221
0.2395 0.239494 4311.36 17.361 43.6915 32.7018 979.254 41.832 -177.195 48.1329 320.296 52.7837 62332
0.2405 0.240501 4264.54 17.0987 30.4986 32.1703 947.692 41.5768 28.7701 47.6536 497.922 52.1348 63447
0.2415 0.241505 4225.16 16.8643 -12.0494 31.6309 903.363 40.8337 82.3934 46.8495 459.451 51.2977 63342
0.2425 0.242503 4347.85 17.2761 39.6275 32.3292 906.005 41.4529 -4.81165 47.7084 337.834 52.3494 63379
0.2435 0.243496 4228.37 16.749 70.487 31.5912 972.566 40.584 59.9043 46.6042 395.297 51.0414 64266
0.2445 0.244495 4166.29 16.4537 100.641 31.2721 1047.04 40.262 -48.4755 46.1319 461.581 50.4271 64695
0.2455 0.245496 4111.36 16.188 69.533 30.9634 1101.24 40.1749 -26.0161 45.848 622.257 49.9598 65947
0.2465 0.2465 4128.08 16.1856 15.0115 30.9944 1131.51 39.6539 -0.600851 45.4827 373.371 49.7333 66018
0.2475 0.2475 4027.44 15.7137 12.1044 29.8481 998.59 38.7884 29.838 44.2907 607.55 48.305 66303
0.2485 0.248496 4046.97 15.7239 7.17824 29.8232 986.424 38.7537 125.566 44.2644 602.682 48.2891 66958
0.2495 0.249492 4025.78 15.5808 29.6061 29.6358 1021.09 38.1389 -72.9072 43.7007 441.051 47.768 66975
0.2505 0.250489 4024.15 15.5027 112.366 29.3098 946.99 37.9294 36.7823 43.4137 512.841 47.439 68676
0.2515 0.2515 3993.79 15.3217 22.1627 28.885 904.364 37.615 159.648 42.9734 605.613 46.9071 69349
0.2525 0.252499 4001.11 15.2627 -37.0017 28.3647 750.598 36.909 102.484 42.2839 531.192 46.2849 68592
0.2535 0.253499 3972.28 15.0925 -6.41056 28.1075 771.628 36.2909 -23.8884 41.6888 405.032 45.7037 70437
0.2545 0.254501 3915.69 14.8096 70.7027 27.2949 644.29 35.6294 113.294 40.8271 534.113 44.7242 70099
0.2555 0.255501 3895.8 14.6629 36.4755 26.6548 498.254 35.0179 75.1392 40.1209 573.942 43.9965 71064
0.2565 0.256503 3939.97 14.7681 63.885 26.8416 503.281 34.9605 148.69 40.2034 437.517 44.1745 71409
0.2575 0.257506 3863.29 14.4319 82.9786 26.4425 578.858 34.2847 -114.629 39.4398 394.599 43.3194 72612
0.2585 0.258506 3742.64 13.933 101.471 25.5527 568.405 33.3629 -179.386 38.2636 496.034 41.9496 71845
0.2595 0.259496 3634.05 13.4772 51.7105 24.8544 607.192 32.2272 32.2293 37.0248 396.793 40.6199 72816
0.2605 0.260498 3696.92 13.6547 -38.4147 25.1671 615.666 32.2865 -3.77715 37.2615 238.558 40.9902 73743
0.2615 0.261499 3620.72 13.3275 81.4712 24.6237 630.603 31.2618 -116.136 36.2208 90.1048 39.9314 74662
0.2625 0.262503 3595.58 13.1836 66.3035 24.3776 632.11 31.113 -10.6233 35.961 168.21 39.588 74931
0.2635 0.263501 3587.44 13.109 34.7896 24.3495 675.791 31.0472 26.6487 35.8664 169.28 39.4625 75087
0.2645 0.264502 3553.53 12.9366 58.4799 23.9954 651.638 30.795 176.803 35.4926 255.794 38.9948 76678
0.2655 0.265506 3465.47 12.5644 57.4677 23.2502 613.829 29.9308 -50.1786 34.4663 287.763 37.8561 76035
0.2665 0.266501 3497.45 12.6305 10.8724 23.273 575.632 30.2202 149.92 34.7063 399.148 38.0672 77094
0.2675 0.267506 3442.64 12.3937 37.8333 22.9697 618.843 29.9808 -9.63495 34.3206 491.285 37.56 78463
0.2685 0.268501 3484.35 12.4797 13.4949 22.8075 497.761 29.6254 -29.0331 34.0696 371.129 37.4228 77076
0.2695 0.269497 3505.57 12.5229 47.3583 23.1887 624.738 30.0455 -18.8676 34.5023 388.049 37.8314 79149
0.2705 0.270499 3383.21 12.0406 51.7615 22.2152 566.788 29.0474 -29.056 33.2552 491.07 36.4085 79648
0.2715 0.271502 3340.45 11.8611 55.2563 22.2553 718.797 28.6751 -47.1569 32.9222 337.553 36.0632 80241
0.2725 0.272505 3265.39 11.547 83.5911 21.5586 655.019 27.8755 63.0654 31.9885 360.844 35.0407 80835
0.2735 0.2735 3326.68 11.7124 50.8655 21.7094 601.012 28.1984 -43.3114 32.3429 406.718 35.436 80680
0.2745 0.274504 3242.73 11.377 -34.165 21.1178 599.891 27.3285 140.107 31.3859 350.844 34.408 82617
0.2755 0.275508 3317.69 11.5816 11.2641 21.2016 490.284 27.3277 93.7603 31.5199 253.964 34.675 82548
0.2765 0.276499 3255.57 11.3311 81.1394 20.8322 518.485 26.9587 -169.55 31.0187 319.617 34.0631 81181
0.2775 0.277489 3195.88 11.075 54.751 20.1741 427.042 26.3397 57.6079 30.2449 395.729 33.2014 84096
0.2785 0.278498 3198.57 11.0472 -16.532 20.2483 482.976 26.1674 94.9353 30.1411 283.841 33.1299 85215
0.2795 0.279502 3209.6 11.0397 30.2498 20.0804 418.293 25.9935 95.2355 29.9651 278.889 32.9683 84514
0.2805 0.280503 3133.12 10.7404 49.35 19.4538 370.44 25.594 88.0777 29.3262 465.921 32.1698 85815
0.2815 0.281501 3181.76 10.8602 9.21307 19.4668 291.764 25.5844 -26.9306 29.3858 419.473 32.3048 85485
0.2825 0.2825 3186.15 10.8334 50.7145 19.2896 237.394 25.3201 41.9619 29.1365 377.382 32.0782 87220
0.2835 0.283504 3186.38 10.7996 3.11717 19.4125 315.527 25.4251 -13.1958 29.2303 385.993 32.1423 87147
0.2845 0.284497 3117.14 10.5291 61.9842 18.8335 268.71 24.8514 -68.0749 28.5066 454.677 31.3224 87102
0.2855 0.285498 3085.71 10.3908 2.28967 18.8468 377.857 24.6643 -36.2598 28.3162 396.912 31.0917 88971
0.2865 0.286499 3125.12 10.4812 -4.8421 18.6676 234.548 24.5779 204.603 28.2477 409.147 31.0739 89434
0.2875 0.287501 3203.08 10.7013 30.6557 19.0643 243.188 25.0153 34.1341 28.7873 376.93 31.6933 89619
0.2885 0.288499 3150.2 10.4916 70.2206 18.7382 260.298 24.5522 -164.983 28.2608 363.881 31.1069 90240
0.2895 0.289501 3105.29 10.3047 71.7114 18.4357 270.098 24.0593 -86.6897 27.7305 314.392 30.5429 91333
0.2905 0.290505 3012.31 9.96806 9.89358 18.0214 342.86 23.6605 17.9899 27.1433 416.026 29.7997 92139
0.2915 0.291506 3021.5 9.96254 46.3652 18.0043 340.954 23.4365 113.737 26.9881 308.458 29.6883 92370
0.2925 0.292502 2978.5 9.7804 47.2379 17.3265 183.355 22.8173 44.8766 26.2456 372.9 28.9015 91819
0.2935 0.293496 2996.85 9.80983 46.7673 17.4655 221.799 23.0111 104.611 26.4377 399.091 29.0829 93552
0.2945 0.2945 2926.21 9.5425 20.93 16.8566 159.403 22.2248 3.04925 25.5653 370.069 28.1599 94701
0.2955 0.295502 2907.86 9.45849 73.8423 16.7727 186.594 22.3502 -111.954 25.572 509.751 28.0829 95020
0.2965 0.296503 2883.07 9.33908 56.7398 16.5919 198.775 21.7348 -26.3017 25.0446 310.651 27.5966 95151
0.2975 0.297498 2853.63 9.22174 57.9036 16.7562 363.727 21.7689 -3.92867 25.0608 287.371 27.5549 95802
0.2985 0.2985 2813.49 9.05593 6.77588 16.2111 248.482 21.2981 -10.2729 24.4727 362.255 26.9122 97399
0.2995 0.299507 2837.21 9.10405 -40.2015 16.2818 243.375 21.5053 81.8367 24.6592 424.489 27.0897 97881
0.3005 0.300503 2877.39 9.19749 46.9814 16.3817 216.812 21.4764 8.43817 24.7254 327.727 27.2278 97188
0.3015 0.301497 2874.76 9.16384 85.1731 16.4742 286.239 21.5135 -120.734 24.766 316.014 27.2492 98263
0.3025 0.302497 2839.68 9.02694 0.671223 16.3345 328.855 21.56 43.0166 24.6743 458.214 27.0524 100050
0.3035 0.303506 2813 8.91343 31.3817 16.2163 366.53 21.2515 -15.5561 24.3697 388.429 26.7352 100779
0.3045 0.304505 2858.28 9.02078 52.7376 16.2002 275.503 21.281 33.1046 24.4391 377.546 26.8604 99982
0.3055 0.305503 2853.97 8.98429 35.1914 16.4377 418.378 21.1234 -52.5071 24.3975 182.317 26.8621 101559
0.3065 0.306497 2751.69 8.63807 75.0663 15.8325 415.385 20.5083 -122.66 23.6009 271.874 25.9259 100935
0.3075 0.307498 2716.71 8.50845 46.9402 15.8116 512.575 20.3527 -13.622 23.4185 236.275 25.7032 103762
0.3085 0.308502 2693.16 8.39785 11.8491 15.3943 406.612 19.9785 32.3057 22.9706 286.067 25.2229 102951
0.3095 0.309501 2672.57 8.30832 5.27343 15.2771 428.171 19.563 105.433 22.6068 145.682 24.8894 104394
0.3105 0.3105 2732.9 8.45765 31.8314 15.2761 306.011 19.6938 40.9373 22.7753 171.475 25.1136 103963
0.3115 0.311497 2735.41 8.43961 -5.23693 15.152 261.882 19.8559 154.078 22.8304 333.071 25.105 105936
0.3125 0.3125 2806.09 8.62229 -40.5888 15.109 95.7458 19.7995 139.488 22.8793 258.899 25.2688 105717
0.3135 0.313498 2806.3 8.59997 -8.87738 14.7192 -63.6919 19.8117 37.2309 22.7228 466.961 25.0677 106776
0.3145 0.314504 2883.84 8.80454 48.4526 15.1188 -46.2648 20.0345 62.8724 23.1311 314.69 25.5813 108733
0.3155 0.315499 2744.85 8.35889 89.8783 14.4967 24.7371 19.246 -205.994 22.1585 359.725 24.4493 105891
0.3165 0.3165 2708.05 8.21821 92.359 14.5003 138.952 19.0838 -27.2267 21.9752 319.545 24.2198 111072
0.3175 0.317506 2622.03 7.94045 73.8708 14.3112 277.925 18.7924 -145.721 21.5725 355.804 23.6943 108121
0.3185 0.318499 2583.66 7.80033 84.4372 14.1822 334.054 18.3867 -65.528 21.1839 241.139 23.3004 110484
0.3195 0.319501 2531.03 7.6173 57.2044 13.883 343.64 17.9204 22.4823 20.6745 196.652 22.7543 110817
0.3205 0.320498 2555.5 7.67013 1.76255 14.0645 388.788 18.1659 64.1003 20.9273 221.991 23.004 111088
0.3215 0.321499 2556.61 7.64651 0.499948 13.9006 328.433 18.1594 51.4833 20.8549 317.048 22.8987 112635
0.3225 0.322501 2485.54 7.40817 20.4508 13.301 237.866 17.5689 19.6544 20.1295 384.122 22.0979 113202
0.3235 0.323504 2507.36 7.44862 21.8718 13.2647 187.11 17.5718 96.988 20.1399 390.656 22.1279 113863
0.3245 0.324503 2517.45 7.45716 66.0212 13.1959 146.203 17.6166 98.8974 20.1475 450.808 22.126 114045
0.3255 0.325499 2536.18 7.48771 10.2303 13.4052 224.367 17.6789 -37.042 20.2803 366.553 22.2827 114828
0.3265 0.326503 2492.73 7.33618 43.6843 12.9755 143.738 17.2513 -59.0082 19.7666 404.537 21.7288 116431
0.3275 0.327504 2460.22 7.2183 39.0196 12.925 218.962 16.9709 -25.3158 19.5045 311.974 21.4505 116442
0.3285 0.328504 2466.53 7.21179 32.8172 12.7349 132.266 16.7852 -67.887 19.3128 308.088 21.2752 116955
0.3295 0.329498 2465.53 7.18619 9.43031 12.7008 136.685 16.5893 129.044 19.1632 220.366 21.1474 117028
0.3305 0.330497 2450.5 7.12005 28.2658 12.536 112.762 16.4813 36.9012 18.9957 271.495 20.9487 119061
0.3315 0.331501 2454.56 7.11217 25.1985 12.4809 93.1255 16.574 33.8621 19.0296 360.131 20.9542 120060
0.3325 0.332504 2455.33 7.0924 37.8239 12.309 26.2331 16.3933 -31.0475 18.8398 352.804 20.7748 119737
0.3335 0.333501 2429.01 6.99709 -1.0834 12.0235 -32.9981 16.0925 123.231 18.4918 362.917 20.4063 120531
0.3345 0.3345 2485.57 7.13831 26.5228 12.1605 -85.2783 16.3171 33.1911 18.7604 366.088 20.7263 121704
0.3355 0.335503 2452.9 7.02191 55.334 12.002 -65.6789 15.9847 -35.137 18.43 301.541 20.3788 122761
0.3365 0.336503 2345.23 6.69556 66.776 11.5455 -11.6811 15.4415 -56.0614 17.7355 356.363 19.5633 122472
0.3375 0.337499 2343.51 6.6706 111.714 11.6316 51.5198 15.3152 -121.032 17.6777 247.827 19.5213 122985
0.3385 0.338498 2272.07 6.44892 62.8573 11.4599 158.565 14.9707 -135.024 17.2732 221.615 19.0422 125380
0.3395 0.339503 2234.93 6.32448 20.1296 11.3522 213.517 14.7172 31.3123 17.0004 174.609 18.7421 125223
0.3405 0.3405 2191.31 6.18184 24.7333 11.049 185.206 14.3515 -14.0025 16.5787 177.351 18.283 125178
0.3415 0.341499 2208.83 6.21463 40.7824 11.1118 187.427 14.4896 105.549 16.7093 212.876 18.4085 127059
0.3425 0.342503 2218.06 6.22667 19.7217 11.0262 133.137 14.7557 130.483 16.8569 421.89 18.4996 127957
0.3435 0.343498 2232.73 6.24153 1.1188 10.9074 61.1737 14.3783 59.271 16.5783 249.728 18.2966 126732
0.3445 0.344497 2207.23 6.15855 40.0742 10.7365 48.3169 14.4716 -4.61189 16.5267 438.402 18.1654 129639
0.3455 0.3455 2223.5 6.18805 20.3849 10.6544 -17.765 14.4946 12.1032 16.5236 485.926 18.1717 129826
0.3465 0.346504 2168.52 6.01357 -3.53956 10.3701 -9.83689 13.9597 22.914 15.9854 385.395 17.6104 130875
0.3475 0.347502 2206.44 6.10434 111.922 10.5215 -13.4779 14.1841 -42.6581 16.2333 405.075 17.88 130686
0.3485 0.348502 2187.71 6.03148 66.088 10.4457 12.4366 13.9379 -105.505 16.0125 325.807 17.6561 132211
0.3495 0.349504 2138.98 5.87866 21.6382 10.2512 47.7294 13.6468 24.4874 15.6712 317.141 17.2673 132768
0.3505 0.350503 2150.48 5.89191 -1.81392 10.2715 45.9612 13.5632 74.6126 15.6345 248.309 17.2561 132957
0.3515 0.351501 2153.45 5.88524 -21.4029 10.1897 10.7791 13.626 30.1895 15.6381 337.388 17.2375 133987
0.3525 0.352498 2148.13 5.8533 25.8951 9.91427 -104.978 13.1978 -10.1759 15.2512 232.691 16.8927 134778
0.3535 0.353498 2146.24 5.83274 64.6488 9.99092 -45.9987 13.3641 -5.04152 15.3697 306.641 16.974 135699
0.3545 0.354501 2127.3 5.76748 55.9654 9.85414 -57.3072 13.3092 6.72715 15.2457 378.008 16.8134 137380
0.3555 0.355501 2090.68 5.65221 65.4838 9.73581 -16.1823 13.1189 26.2432 15.0191 376.196 16.5462 136161
0.3565 0.356499 2094.19 5.65079 31.905 9.74059 -11.644 13.2935 85.9741 15.1304 488.036 16.6253 138792
0.3575 0.3575 2081.68 5.60124 -0.49483 9.51665 -81.6544 13.0411 -12.2612 14.8556 474.886 16.3561 138097
0.3585 0.358498 2065.95 5.54894 -4.91216 9.33962 -125.455 12.9377 81.2859 14.6922 532.526 16.1731 140028
0.3595 0.359503 2069.05 5.54534 32.4009 9.30489 -139.739 12.982 26.3386 14.7019 584.31 16.1742 141099
0.3605 0.360505 2049.44 5.48419 65.7695 9.12496 -177.293 12.8602 8.63555 14.519 636.644 15.9724 140821
0.3615 0.361502 2019.41 5.37937 78.4784 9.11459 -91.4847 12.5888 -89.4581 14.2975 519.601 15.727 141756
0.3625 0.362504 1957.53 5.20281 57.4794 8.78634 -103.512 12.232 -16.7989 13.8496 556.589 15.2238 142971
0.3635 0.363499 1960.02 5.18532 22.8567 8.89849 -31.1092 12.123 18.5864 13.8199 430.006 15.2037 142270
0.3645 0.3645 1968.22 5.19722 31.1546 8.76709 -109.817 12.0917 4.052 13.7524 479.007 15.1445 145311
0.3655 0.365503 1945.14 5.12173 23.6585 8.76375 -43.6488 12.0421 -73.6872 13.683 487.612 15.0371 145434
0.3665 0.366501 1906.05 4.99975 17.8754 8.4562 -96.4184 11.4736 -37.8658 13.1427 345.254 14.5085 144547
0.3675 0.367496 1961.78 5.12807 69.0814 8.85885 -1.58064 11.7619 -73.5145 13.5504 246.703 14.9634 146892
0.3685 0.368499 1867.3 4.86921 81.4494 8.43687 12.3606 11.2343 -70.6417 12.917 264.382 14.2479 148113
0.3695 0.369499 1847.33 4.80663 23.769 8.39835 49.8661 11.3119 83.0332 12.9178 366.534 14.194 147387
0.3705 0.370498 1908.74 4.94953 -26.1167 8.54545 -3.74925 11.4062 93.4907 13.1104 277.772 14.4632 149758
0.3715 0.371501 1901 4.91728 0.621306 8.39104 -56.6739 11.3094 22.6056 12.9711 318.411 14.3137 150099
0.3725 0.3725 1894.75 4.89089 70.8658 8.27886 -93.1924 11.2287 3.62935 12.862 342.562 14.1977 150468
0.3735 0.373498 1919.91 4.94198 34.5106 8.42805 -59.2813 11.4217 -81.4872 13.069 362.761 14.4078 150709
0.3745 0.374497 1864.94 4.78616 21.6587 8.10631 -88.9775 10.9492 16.237 12.565 307.8 13.8789 153108
0.3755 0.375501 1918.26 4.90951 10.9295 8.30804 -96.6327 11.1736 90.0814 12.8522 281.205 14.209 153189
0.3765 0.376499 1870.72 4.78189 13.663 7.95792 -163.695 10.949 23.58 12.5012 396.074 13.807 153547
0.3775 0.377499 1910.09 4.86851 23.6714 8.08703 -177.612 11.054 92.8135 12.6671 348.109 14.0099 155424
0.3785 0.378502 1912.7 4.85994 49.0697 8.06364 -184.429 10.9075 -57.7923 12.5659 268.923 13.9273 155313
0.3795 0.379499 1898.37 4.81183 72.423 8.03124 -155.486 10.9148 -66.0869 12.5288 319.341 13.8597 156100
0.3805 0.3805 1891.92 4.78614 -23.2836 7.86586 -221.041 10.7968 31.6493 12.3752 345.316 13.7045 157557
0.3815 0.381498 1882.59 4.75018 5.03472 7.82122 -212.748 10.7235 98.2099 12.2941 340.147 13.6117 157692
0.3825 0.382501 1906.01 4.79683 62.925 7.83365 -253.721 10.6739 -6.77801 12.2973 274.384 13.6506 159703
0.3835 0.383505 1859.17 4.6718 56.6303 7.65519 -227.067 10.635 -77.5731 12.1265 420.334 13.4088 160338
0.3845 0.384506 1821.29 4.55738 72.5019 7.57551 -166.531 10.3146 -50.6915 11.8397 308.163 13.1028 160167
0.3855 0.3855 1786.48 4.46076 32.805 7.38833 -176.071 10.1691 1.15275 11.6202 367.439 12.8444 160033
0.3865 0.386496 1791.68 4.45829 33.7611 7.45121 -141.326 10.137 38.6614 11.6264 310.611 12.8561 162444
0.3875 0.387502 1775.38 4.40908 34.8562 7.3751 -134.4 10.1373 -9.55501 11.5674 383.689 12.7659 164307
0.3885 0.388504 1728.48 4.28026 57.6599 7.29621 -54.7681 9.96659 -45.6365 11.3629 381.527 12.51 163882
0.3895 0.389505 1752.46 4.32597 42.6142 7.38805 -48.4642 10.0281 5.13717 11.4619 345.478 12.6297 164595
0.3905 0.390501 1751.38 4.31363 38.4525 7.41833 -18.7557 10.0989 -48.1035 11.512 385.117 12.6613 165006
0.3915 0.391501 1707.39 4.19527 19.7374 7.20229 -25.196 9.83551 -48.9729 11.1997 392.756 12.3145 166687
0.3925 0.392501 1724.06 4.22423 2.21698 7.29373 -2.26733 9.90954 62.6267 11.2979 374.571 12.4209 167256
0.3935 0.393501 1747.89 4.27446 45.3713 7.32437 -34.2518 10.0439 33.0558 11.4193 426.517 12.5511 167937
0.3945 0.394496 1750.77 4.27023 46.5609 7.36228 -8.2461 10.0689 -23.4117 11.4484 425.12 12.5747 167719
0.3955 0.395497 1723.16 4.19618 27.611 7.15491 -53.3415 9.9063 66.4145 11.225 476.276 12.3274 171636
0.3965 0.396504 1723.61 4.18721 63.3365 7.28993 31.4424 10.0357 -10.8085 11.3582 492.906 12.4374 171093
0.3975 0.3975 1677.05 4.06852 44.113 6.96598 -35.1113 9.74093 -26.3136 10.981 547.669 12.0296 170464
0.3985 0.398498 1721.92 4.16297 3.87457 7.15813 -18.7476 9.93313 2.92076 11.2271 516.737 12.3055 172113
0.3995 0.399495 1638.82 3.95313 19.9452 6.7218 -61.1953 9.35548 79.811 10.5817 481.873 11.6162 173232
