### header ###
fiducial parameters:
Omega_m = 0.31
Omega_nu = 0
Omega_de = 0.69
Omega_k = 0
H_0 = 100
w_de = -1
zeff = 0
beta = 0
fgrowth = 0
b_1 = 2
gamma = 0.55
Lx = 2000 Ly = 2000 Lz = 2000
nx = 600 ny = 600 nz = 600
xoffset = 6.37964 yoffset = 280.636 zoffset = 1.04512
bins = 400 dk = 0.001
kx_ny = 0.942478 ky_ny = 0.942478 kz_ny = 0.942478
############################
A(data) = 0.412262 (not used)
A(ran) = 0.411329 (used)
Ngal = 73499
weighted Ngal = 0
Nran = 2208341
weighted Nran = 0
SN(data) = 6220.24
SN(ran) = 203.973
SN(data+ran) = 6424.21
############################
13 columns: k_central k_mean P_0(k) sigma^{lin}_{P_0(k)} P^img_1(k) sigma^{lin}_{P_1(k)} P_2(k) sigma^{lin}_{P_2(k)} P^img_3(k) sigma^{lin}_{P_3(k)} P_4(k) sigma^{lin}_{P_4(k)} N_modes
### header ###
0.0005 0 0 0 0 0 0 0 0 0 0 0 0
0.0015 0 0 0 0 0 0 0 0 0 0 0 0
0.0025 0 0 0 0 0 0 0 0 0 0 0 0
0.0035 0.00314159 20241.7 40591 -64365.9 66384.1 -38980.6 65325.3 112338 109335 -47190.7 114044 3
0.0045 0.00444288 32149.2 23514.4 -53000.2 57245.9 33278 75780.7 -19085.5 83686.6 23159.9 87028.6 6
0.0055 0.0054414 36733.2 27585.1 -27383.4 72880.4 93803.3 101624 -92493.2 114230 47584.7 112991 4
0.0065 0.00628319 80685 42818.6 -121003 71164.9 -97715.9 75551.6 85329.4 109665 -116183 121064 3
0.0075 0.00736006 67016.9 21585.8 -48572.2 41388.1 12286.7 52617.8 5741.43 60506.5 8280.23 66252.1 24
0.0085 0.00888577 68148.2 18225.1 -24209.8 32639.4 5092.51 41309.1 11555.6 48324.2 882.514 53546 6
0.0095 0.00965136 100067 24093.6 -40203.2 41946.8 -7451.72 54500.1 -20417.6 63408.5 216.381 70164 27
0.0105 0.0105353 90585.3 19436.4 -21998.7 33837.5 -2335.9 45742 -20640.3 52245.8 16277.3 57342.6 16
0.0115 0.0116122 81522.6 16079.7 -19931.5 25502.7 -20918.2 35491 -19952.7 40834.8 11140.9 45308.3 36
0.0125 0.0129101 110891 19982.5 3018.29 34346.2 -2302.63 47258.4 -45061.9 53940.8 28924.8 58953.4 27
0.0135 0.0134747 107709 18296.7 -23387.4 28728 -29943.9 42896.1 -41062.4 47831.6 43244.5 52569.3 30
0.0145 0.0143945 96470.8 15293.4 -12522 26635.3 -4761.78 37273.1 -62620.8 42420.4 28823.6 45845.7 48
0.0155 0.0155669 102618 15208.6 -10977.4 26739.2 -371.066 39262.9 -51980.2 43512.7 60019.4 46811.2 27
0.0165 0.0164423 99794.5 13839.6 6623.35 25295.1 12778.5 36165.2 -45673.7 40329.4 56494.8 43254.8 88
0.0175 0.0173201 112307 15231.4 43192.4 28358.1 20461.8 41075.7 -51012.7 45582.7 89056.9 48689.8 30
0.0185 0.0184089 94508.5 11963.2 9294.7 24716.3 43015.1 35532.9 -12408.3 39061.1 81782.9 41005.1 87
0.0195 0.0194154 76495.7 9757.91 59289.6 19053.6 22959.4 25055.6 -29299.8 28558 33808.6 30810.3 60
0.0205 0.0203279 81568.9 9673.73 41295.5 20362.7 35488.6 29040.8 24804.9 31876.2 69774.5 33429 96
0.0215 0.0214382 63271.3 7618.33 52286.8 16890.5 34641.6 23330.5 29043.8 25703.5 46937.2 26865.5 91
0.0225 0.0225146 55693.8 6243.15 41602.4 12315.1 -619.359 17135.4 46957.7 19113.2 18902.4 20237.8 114
0.0235 0.0234139 44844.2 4828.26 34366.8 10360.7 16660.2 14017 31419.8 15589.6 17584 16413.2 108
0.0245 0.0244951 40029.4 4180.52 22158.3 7773.51 -10701.1 10632.7 49788.4 12362 -2140.19 13024.1 120
0.0255 0.0255301 35192.7 3195.27 6379.31 5656.23 -1750.01 7227.8 25608.6 8597.47 -4166.64 9398.73 135
0.0265 0.0263813 31554.2 2795.72 -8274.05 4894.34 1123.52 5687.63 24041.1 7142.48 -9861.89 7977.93 114
0.0275 0.0273319 39705.3 3457 -18988.7 6126.83 2020.19 6425.94 21255 8428.09 -24349.9 9724.69 172
0.0285 0.0285291 36688.9 3274.31 -27731.8 6697.95 20740.9 7240.91 11194.9 8747.62 -21831 10001.1 171
0.0295 0.0295749 47359.5 3827.11 -22824.5 7566.14 20258 8487.15 16810.6 10229.4 -18563 11550.4 228
0.0305 0.0305657 49985.6 3987.31 -17542.7 8559.38 39513.7 9662.42 11464.4 11259.4 -22906.5 12669.9 108
0.0315 0.0314063 52431.6 3841.43 -13253.1 7509.13 19796.6 8448.75 13077.6 10176.9 -21216 11523 213
0.0325 0.0325299 50757.9 3659.24 -1135.64 7703.65 33435.1 8862.07 12820.4 10334.5 -18523 11549.2 280
0.0335 0.0336972 58260.2 3910.3 6170.2 7349.54 12786 8692.8 8268.32 10351.7 -14505 11601.8 216
0.0345 0.034538 49465.4 3281.14 13199.7 6469.77 16632.7 7773.09 13271.9 9093.72 -9908.82 10069.8 183
0.0355 0.0355144 47470.1 3037.81 16403.7 5574.91 5030.47 6879.86 5504.62 8088.58 -5567.69 8989.11 306
0.0365 0.0365332 44718 2795.34 17305.4 4947.84 -992.343 6373.2 8777.28 7415.26 -300.683 8199.09 252
0.0375 0.0375948 44507.6 2699.92 16437.4 4539.61 -5295.43 6023.84 834.562 6981.71 3751.92 7749.63 291
0.0385 0.0385839 37778.4 2242.42 11122.6 3384.95 -14123.9 4667.94 3285.07 5465.61 1238.61 6129.71 340
0.0395 0.0396356 37433 2124.75 1647.41 3264.34 -10818.9 4323.19 -1130.48 5151.63 -2087.04 5800.39 294
0.0405 0.0405853 38587.8 2150.89 605.538 3340.74 -10242 4556.49 -13914.4 5348.74 2196.32 5960.1 303
0.0415 0.0414395 36433 1981.94 -6370.45 3120.5 -10031.9 3970.29 -5116.52 4816.21 -6586.18 5432.64 312
0.0425 0.0424945 39519.5 2118.87 -10691 3722.92 -1896.34 4916.47 -17830 5696.29 1822.18 6244.98 444
0.0435 0.0435897 42270.2 2251.14 -17734.7 4418.47 11261 5465.81 -13499 6333.49 -4457.86 6952.1 343
0.0445 0.04452 41704.5 2138.32 -8908.79 4125.83 10085.1 5287.1 -19331.1 6086.16 1888.4 6615.2 390
0.0455 0.0454709 43973.3 2211.45 -10482.4 4483.68 18318.5 5746.31 -11378.8 6531.78 5382.8 7061.49 456
0.0465 0.0465216 47411.9 2366.5 -5157.17 5076.38 29993.6 6568.14 -11605.9 7391.34 11035.9 7889.11 372
0.0475 0.0474847 44724.2 2144.52 -1888.44 4404.29 21883 5634.9 -7940.4 6395.37 6508.64 6903.49 495
0.0485 0.0484846 45981.6 2184.74 4518.8 4630.65 27698.7 5960.24 -4178.06 6722.12 9690.26 7205.34 478
0.0495 0.0494829 41799.8 1938.76 5255.86 4023.7 20893.2 5422.26 -1646.59 6054.28 18694 6433.84 492
0.0505 0.0504863 42535.2 1934.66 13258.7 3931.66 18512.9 4995.27 3224.65 5685.39 4482.36 6165.31 483
0.0515 0.0514399 41164 1834.26 10541.2 3731.97 17927.9 4966.51 -1505.49 5574.97 14822.4 5966.48 552
0.0525 0.0524122 36267.6 1577.97 11293.5 3076.73 10450.3 4142.4 1630.5 4651.71 12993.7 5007.39 528
0.0535 0.0534839 36066 1522.31 8761.33 2891.94 8161.61 3843.03 1616.91 4350.67 9151.8 4720.24 621
0.0545 0.0545145 34714.8 1436.64 8499.06 2659.71 5621 3578.69 -1675.36 4048.85 10016.3 4401.92 664
0.0555 0.0555212 32819.3 1335.25 6391.07 2533.37 7363.3 3458.69 664.842 3878.86 12609.6 4184.2 564
0.0565 0.0565692 32174 1272.71 4681.83 2263.39 1977.14 3068.49 1670.46 3482.71 8034.63 3809.47 735
0.0575 0.0575191 32390 1252.21 635.62 2197.36 1229.23 2911.4 -1341.7 3346.38 4467.97 3686.43 510
0.0585 0.0583686 32057.4 1223.64 4159.65 2232.68 4168.59 2948.78 1679.5 3368.67 5516.24 3687.18 720
0.0595 0.0594345 32631.3 1221.89 -3942.05 2179.18 2468.31 2833.27 769.364 3273.08 2751.55 3610.16 703
0.0605 0.0605127 32286.9 1186.29 318.767 2047.77 -253.075 2585.3 1188.69 3052.65 -2142.52 3407.75 900
0.0615 0.061563 33883.1 1230.01 -4415.74 2238.08 4380.19 2781.38 903.746 3264.37 -2410.99 3627.46 696
0.0625 0.0625445 32251.8 1151.48 -1906.77 2077.36 3357.42 2524.85 -3334.49 3002.25 -5397.43 3358.86 801
0.0635 0.0635353 35161.9 1236.32 -4321.94 2260.68 4896.3 2810.76 -1966.59 3294.37 -2492.67 3657.43 840
0.0645 0.0645579 34331.4 1190.1 -2403.72 2250.17 8120.78 2830.36 -2900.86 3276.62 134.709 3606.56 840
0.0655 0.0655503 36569.4 1250.88 -2729.61 2401.82 10254.9 3041.81 -2800.58 3501.09 1681.6 3836.61 859
0.0665 0.0665395 34297 1156.2 299.846 2235.03 10568.1 2779.17 -484.632 3216.54 -820.105 3539.43 870
0.0675 0.0674989 35469.5 1180.67 48.6153 2313.33 11995.8 2996.06 1735.82 3408.57 5935.59 3699.57 924
0.0685 0.0684965 35661.7 1172.16 4992 2278.65 10844.3 2998.24 1804.38 3395.86 8285.54 3676.44 900
0.0695 0.0694713 34720.2 1123.16 2123.37 2190.37 11294.7 2776.73 5361.08 3187.3 2088.43 3481.16 999
0.0705 0.0705149 34448.2 1099.9 6145.93 2106.59 8701.84 2731.68 5813.68 3118.83 4697.06 3396.83 1096
0.0715 0.0715703 32704.6 1023.28 3236.19 1928.14 7195.58 2471.37 4074.13 2842.12 2494.25 3114.15 1026
0.0725 0.0725247 31690.6 982.501 4316.6 1877.5 8241.18 2323.71 5286.45 2703.12 -2047.13 2982.3 987
0.0735 0.0735006 32687 995.254 2334.02 1896.56 8453.28 2397.67 2578.41 2765.66 1044.45 3036.06 1140
0.0745 0.0745236 31231.2 939.854 4092.81 1794.77 8236.23 2273.75 144.343 2619.11 1443.7 2872.85 1128
0.0755 0.0755584 30708.9 915.686 1442.49 1796.38 10663.9 2255.06 4929.21 2595.07 672.862 2839.28 1161
0.0765 0.076463 30869.5 911.958 5715.35 1785.77 10632.4 2200.11 -500.5 2548.59 -1631.91 2806.17 1096
0.0775 0.0774728 30527.8 892.327 3920.71 1795.66 12873.8 2282.31 1973.6 2601.82 3051.67 2825.57 1260
0.0785 0.0785174 28581.3 825.834 5882.21 1644.53 10761.8 2127.79 1298.15 2415.22 5106.92 2614.75 1275
0.0795 0.0794712 29440.2 840.388 5393.66 1686.92 11971.1 2151.9 2438.95 2451.17 3341.06 2660.32 1182
0.0805 0.0804445 27234.5 772.068 5832.79 1572.32 12264.7 2024.87 1116.12 2294.45 4825.48 2477.23 1356
0.0815 0.0815011 26556.2 742.173 4437.05 1512.7 11951.3 1967.59 2123.91 2222.68 5963.36 2392.47 1399
0.0825 0.0825294 25599.9 710.215 5563.5 1458.58 12114.5 1895.52 1328.32 2139.6 5912.85 2300.6 1428
0.0835 0.0835202 26386.8 724.187 3850.08 1509.5 14058.6 1956.7 200.474 2206.43 6140.92 2367.65 1404
0.0845 0.0845414 24099 655.876 4428.65 1374.52 13390.1 1763.23 399.124 1992.51 4383.97 2142.79 1389
0.0855 0.0855269 23862.4 642.461 2685.74 1360.06 14087 1757.42 923.005 1979.56 5402.07 2120.33 1584
0.0865 0.0865179 23396.5 625.645 3509.55 1333.63 14310.1 1738.08 -618.229 1952.31 6682.78 2083.04 1416
0.0875 0.0874839 22962.4 611.706 3423.66 1325.23 15612.5 1717.88 -1452.94 1928.98 6212.58 2055.31 1507
0.0885 0.0885022 22431 581.51 2430.87 1219.86 12426.1 1589.05 46.7027 1788.15 5934.96 1913.81 1614
0.0895 0.0894643 21566.9 563.396 1863.94 1232.7 15248.9 1621.22 -995.858 1812.61 7837.27 1919.54 1596
0.0905 0.0904589 21640 561.641 1902.51 1240.31 16063.4 1631.3 918.307 1822.05 8006.58 1926.42 1644
0.0915 0.0915249 20975.6 532.866 -111.795 1154.3 13879 1529.05 288.537 1708.17 8270.9 1808.64 1863
0.0925 0.0925326 21051.1 533.024 1026 1170.93 15164.2 1540.69 2658.19 1721.93 7683.02 1821.71 1684
0.0935 0.0935199 20417.5 509.923 -190.035 1112.02 14229.3 1458.29 3543.81 1632.86 6923 1730.97 1722
0.0945 0.0945255 21400.9 527.607 954.464 1141.67 14342.9 1482.73 5452 1666.05 5712.61 1773.05 1863
0.0955 0.0955145 19951.4 487.161 697.89 1048.38 13373 1326.4 6544.41 1502.21 2198.69 1612.68 1788
0.0965 0.0965093 20411.1 488.914 909.103 1030.99 12100.7 1296.32 6647.69 1475.19 1338.63 1592.08 1968
0.0975 0.0975428 19920.3 469.133 2024.07 960.759 9488.93 1203.41 7897.94 1379.47 324.298 1496.24 1861
0.0985 0.0985169 19139.9 446.425 789.236 914.295 9699.44 1102.16 6337.56 1277.78 -2893.21 1404.85 2064
0.0995 0.0995274 19248.5 440.89 781.422 879.364 7996.15 1048.74 5723.93 1227.59 -3868.45 1359.75 1872
0.1005 0.100476 18692.5 421.856 1748.05 833.171 7002.45 1000.49 4344.61 1169.65 -3280.7 1295.36 1971
0.1015 0.101504 18470.2 411.973 485.879 808.383 6738.18 957.801 3541.62 1126.85 -4123.21 1254.88 2340
0.1025 0.102548 18095.4 398.661 516.703 779.453 6365.44 929.277 2694.68 1091.12 -3562.52 1213.61 1998
0.1035 0.103469 18135.5 396.243 1575.95 776.582 6493.13 920.748 1959.99 1082.39 -3995.28 1206.04 1987
0.1045 0.104462 16764.6 360.164 1263.95 688.638 4615.27 833.105 1574.24 977.492 -2469.02 1085.98 2364
0.1055 0.105482 17819.5 381.373 2020.83 748.822 6358.19 907.467 1685.49 1057.23 -2306.55 1169.51 2244
0.1065 0.106506 15856.5 333.622 2150.82 615.873 2582.94 744.232 1636.95 881.779 -2805.58 984.814 2265
0.1075 0.107496 15560.6 324.246 2494.14 603.236 2818.35 752.608 1613.77 877.391 -751.183 970.368 2484
0.1085 0.108477 15833.6 326.72 2213.32 604.835 2698.81 742.541 1577.93 872.812 -1809.93 970.232 2128
0.1095 0.109449 14850.2 303.049 2011.6 542.8 1128.9 667.993 1650.99 791.221 -1979.99 883.268 2487
0.1105 0.110438 13594.7 273.855 1228.94 466.325 -621.117 596.684 617.604 702.39 -485.922 783.488 2388
0.1115 0.111467 14600 292.105 813.697 507.175 -32.1541 614.303 1221.69 740.102 -3078.21 833.202 2790
0.1125 0.112507 13855.2 273.868 230.048 475.044 49.6842 595.023 573.163 704.473 -1246.36 787.214 2448
0.1135 0.113512 13945.7 274.028 -0.662293 462.343 -1044.3 564.464 806.249 683.353 -2903.72 770.962 2703
0.1145 0.11449 13798.3 267.976 41.1868 466.194 157.492 581.758 154.605 689.458 -1377.45 770.786 2608
0.1155 0.115518 14363.4 276.8 -181.01 484.719 389.189 595.286 283.539 709.913 -2160.83 795.841 2730
0.1165 0.116537 13295.8 253.929 504.953 444.745 377.458 551.272 -190.045 654.313 -1556.41 731.888 2883
0.1175 0.117525 14027 265.415 423.546 461.914 181.573 580.235 -18.305 685.3 -1059.54 764.939 2640
0.1185 0.118508 13739.3 257.852 466.468 455.46 708.88 569.579 198.297 671.538 -1059.4 748.609 2976
0.1195 0.119557 13160.2 244.992 785.556 422.252 -168.175 530.775 -333.121 628.362 -1088.52 702.317 2833
0.1205 0.120525 13106 241.953 721.271 420.627 148.036 530.985 -1023.21 625.93 -745.851 697.874 2988
0.1215 0.1215 13235.9 242.285 632.462 415.909 -237.132 540.386 -1373.43 630.168 468.899 699.566 2808
0.1225 0.122504 13123.1 238.434 405.911 421.63 735.857 534.269 -1792 626.223 -341.295 695.426 3135
0.1235 0.123517 12901.6 232.619 -174.746 417.285 1181.82 533.83 -1993.24 620.951 282.648 686.307 3180
0.1245 0.124512 12911 231.532 765.896 419.743 1590.86 538.978 -2748.09 625.002 700.184 688.495 2994
0.1255 0.125484 12893.2 229.176 449.823 423.946 2275.14 547.115 -1614.93 629.788 1212.9 691.055 3115
0.1265 0.126507 12785.3 225.683 869.293 418.84 2392.17 535.544 -1696.93 618.498 784.876 679.786 3444
0.1275 0.127489 12457.6 219.137 1062.39 419.744 3440.68 538.117 -1626.82 617.14 1300.98 674.088 3168
0.1285 0.128528 12182.7 212.403 1985.62 395.038 2336.22 499.839 -1241.04 579.413 312.17 638.392 3501
0.1295 0.129511 11918.8 206.159 1589.8 389.707 2750.93 491.04 942.876 568.05 108.841 625.014 3264
0.1305 0.130472 11990.7 205.363 1328.36 382.457 2361.39 480.976 -916.097 558.685 -26.5256 616.492 3304
0.1315 0.131461 11175.9 189.271 922.858 342.513 1266.03 436.372 676.629 507.131 170.079 560.549 3519
0.1325 0.132468 11488.5 193.523 1355.89 353.863 1632.3 440.399 98.1439 515.895 -731.717 572.642 3648
0.1335 0.133515 11329.8 189.671 437.025 344.193 1378.72 411.01 1165.1 492.088 -2560.11 552.668 3846
0.1345 0.134528 11269 186.772 -143.304 343.342 1821.71 422.823 -34.0193 496.992 -1117.51 552.733 3504
0.1355 0.135518 11088.8 182.398 -61.665 328.26 1126.17 398.124 120.595 473.995 -1909.19 530.938 3735
0.1365 0.136504 11644.4 190.34 -396.37 343.051 1225.1 412.212 356.59 492.812 -2378.16 553.226 3856
0.1375 0.137516 11563.2 188.282 -385.819 352.399 2488.25 420.919 -408.655 499.239 -2358.87 558.493 3642
0.1385 0.138497 11299.9 182.048 -88.3728 335.596 1922.4 408.798 183.609 482.537 -1564.23 538.004 4023
0.1395 0.139481 11548.8 185.386 -887.202 348.239 2560.72 421.467 -866.83 496.595 -1786.05 553.088 3684
0.1405 0.140479 11771.9 187.276 213.198 355.58 2979.99 445.402 -175.752 515.944 -75.6195 568.225 4284
0.1415 0.141535 11274.7 178.249 135.984 340.365 3017.92 430.087 783.3 495.995 381.763 544.371 4063
0.1425 0.142517 11436.8 179.603 648.048 343.427 3090.2 435.482 338.122 501.331 572.128 549.629 4122
0.1435 0.143504 11690.1 182.367 437.426 348.681 3122.44 446.529 1284.5 512.298 1057.61 560.038 4056
0.1445 0.144522 11111.1 172.492 819.136 330.702 3025.95 419.218 1925.81 482.827 484.24 528.813 4311
0.1455 0.145478 10942.5 168.421 1351.99 314.959 2094.92 412.381 1739.17 471.019 1711.79 513.994 4140
0.1465 0.14651 11121.4 169.854 1071.38 316.058 2011.39 405.791 2229.52 467.847 726.809 513.227 4582
0.1475 0.147542 10585.9 160.354 1275.97 293.397 1411.93 377.276 1746.87 435.976 578.564 479.644 4431
0.1485 0.148519 10480.7 157.574 973.422 286.039 1200.26 362.217 1931.59 422.255 -152.513 466.807 4260
0.1495 0.149473 10307 153.475 694.931 272.637 650.763 355.302 1229.46 410.558 841.274 452.752 4536
0.1505 0.150519 10213.1 151.283 848.149 277.722 1551.38 353.617 700.559 409.794 275.187 451.91 4719
0.1515 0.151511 9926.52 145.747 309.066 261.365 907.717 337.08 822.4 390.442 541.408 430.954 4554
0.1525 0.152489 9997.43 145.792 338.414 261.362 910.244 336.231 571.637 389.872 449.04 430.642 4720
0.1535 0.15349 9744.27 141.347 561.827 257.398 1279.81 332.455 542.811 383.545 755.971 422.103 4599
0.1545 0.154486 9388.75 135.376 390.83 248.381 1428.92 317.893 777.678 367.663 450.847 404.944 5064
0.1555 0.155482 9698.03 138.712 454.531 248.799 893.842 319.982 423.947 371.014 431.503 409.817 4638
0.1565 0.156446 9406.92 133.795 603.418 242.178 1083.94 311.785 465.674 360.645 545.357 397.633 4896
0.1575 0.157497 9242.26 130.603 490.105 235.23 951.065 295.643 403.403 346.061 -375.814 384.099 5383
0.1585 0.1585 9118.72 127.893 525.271 224.512 341.38 292.426 -29.4789 338.691 644.057 374.467 5076
0.1595 0.159469 9009.43 125.755 798.282 225.884 861.211 287.067 -80.8966 334.517 11.217 370.47 4734
0.1605 0.160487 8833.74 122.355 535.006 213.535 202.53 278.021 -226.092 322.499 553.858 356.952 5715
0.1615 0.161509 8938.91 123.162 458.652 221.664 918.565 287.582 -523.644 331.952 765.881 365.689 5136
0.1625 0.162495 8578.88 117.532 923.262 201.905 -153.348 264.931 -311.775 307.298 637.023 340.503 5292
0.1635 0.16349 8639.7 117.539 317.54 210.299 755.543 273.537 -583.747 315.782 766.326 348.026 5419
0.1645 0.164517 8608.09 116.315 429.142 204.085 312.538 266.532 57.0032 308.354 690.053 340.757 5838
0.1655 0.165537 8675.94 116.575 287.888 207.135 600.225 273.112 -181.405 313.794 1166.65 345.267 5436
0.1665 0.166522 8199.45 109.507 149.583 195.451 663.501 255.202 -463.783 294.246 823.837 324.166 5331
0.1675 0.167481 8548.89 113.441 -97.7651 199.456 364.881 262.425 376.298 302.468 959.55 333.577 5820
0.1685 0.168494 8653.36 114.505 167.251 211.182 1428.01 279.628 -95.7909 318.545 1721.17 347.761 5626
0.1695 0.169489 8289.49 109.015 -78.5494 199.228 1164.81 265.559 431.253 302.2 1791.61 329.974 5883
0.1705 0.170499 8445.92 110.533 318.118 200.595 1003.92 269.927 995.528 306.443 2070.97 334.284 5952
0.1715 0.171509 8495.34 110.628 394.481 202.569 1200.45 273.063 892.722 309.316 2255.95 336.744 6108
0.1725 0.172508 8184.71 106.143 466.248 194.758 1172.32 262.859 1439.17 297.69 2215.37 323.725 5727
0.1735 0.173498 8124.21 104.835 416.616 182.297 49.6386 252.788 1902.74 285.771 2491.68 312.14 6342
0.1745 0.174509 8032.07 102.989 286.791 183.142 507.305 251.325 1773.23 284.287 2399.32 309.833 6208
0.1755 0.175516 7854.74 100.049 51.4174 176.715 397.523 244.778 1234.58 275.909 2625.61 300.749 5991
0.1765 0.176497 7833.96 99.2075 -327.436 168.78 -279.85 235.442 1307.64 266.272 2410.36 291.958 6540
0.1775 0.177517 8087.87 101.892 -537.811 178.791 305.664 247.618 1197.82 279.418 2664.26 304.994 6390
0.1785 0.178518 8003.81 100.491 -351.829 183.85 1112.39 254.314 872.119 285.303 3113.29 309.026 6456
0.1795 0.179514 8029.61 100.315 -562.743 180.284 763.454 250.748 1297.57 281.522 3123.18 305.59 6319
0.1805 0.180483 8215.84 101.722 -287.879 181.179 600.946 250.56 848.827 282.14 2823.95 307.239 6708
0.1815 0.181489 8155.09 100.68 358.672 184.667 1153.07 253.206 1419.31 285.025 2807.39 308.978 6528
0.1825 0.182495 7970.18 97.7173 372.38 174.58 601.132 241.75 1232.02 272.027 2778.93 295.892 6777
0.1835 0.183506 8124.24 98.8924 565.378 175.745 501.973 240.385 1173.42 272.04 2304.47 296.926 7224
0.1845 0.184526 7851.55 95.0431 674.148 167.763 362.446 230.922 660.884 260.807 2382.62 284.8 6612
0.1855 0.185489 7904.8 95.0382 663.49 164.97 78.9297 226.478 -160.127 256.761 2139.65 281.466 6751
0.1865 0.186488 7576.09 90.7406 856.745 155.201 -203.058 215.202 -100.218 243.525 2198.85 267.243 7302
0.1875 0.187497 7944.55 94.8397 463.889 165.905 226.897 233.943 -466.625 261.961 3202.13 285.354 7152
0.1885 0.188526 7268.96 86.36 732.064 150.122 110.364 209.645 -1009.29 236.071 2573.84 257.798 7203
0.1895 0.189514 7516.35 89.1981 662.76 159.585 609.93 226.38 -851.733 252.25 3581 273.223 7392
0.1905 0.190484 7362.19 86.9082 777.467 153.062 309.451 218.73 -529.253 243.414 3553.04 264.229 6880
0.1915 0.191498 7256.27 85.1315 453.987 152.476 608.949 216.033 -785.84 240.788 3410.75 260.803 7857
0.1925 0.192538 7025.86 82.2994 682.835 149.176 778.519 212.663 -652.907 236.143 3695.29 254.932 7824
0.1935 0.193535 7197.13 83.4289 321.087 150.175 691.627 211.623 -352.569 236.136 3238.36 255.799 7188
0.1945 0.194503 6837.01 79.0413 394.296 142.8 695.901 203.146 188.282 225.743 3433.56 243.988 7599
0.1955 0.195509 6902.67 79.207 250.085 145.43 1009.37 202.693 -354.857 226.576 2969.98 244.949 7810
0.1965 0.196504 6800.23 77.4431 174.369 138.476 543.518 193.394 553.905 216.748 2670.61 235.454 7944
0.1975 0.197511 7006.89 79.2562 286.009 143.998 857.579 197.051 -63.1317 222.091 2280.8 241.464 7563
0.1985 0.198484 6590.63 74.0436 146.597 132.35 536.916 179.996 595.031 203.928 1789.27 222.648 8088
0.1995 0.199493 6890.73 76.824 252.528 135.271 314.126 180.269 184.228 206.516 1138.17 227.093 8130
0.2005 0.200491 6737.74 74.8286 319.191 133.11 477.779 179.003 9.11766 203.873 1465.96 223.347 8004
0.2015 0.201509 6782.81 74.8312 318.309 132.241 363.702 170.536 245.956 198.141 261.682 219.293 8623
0.2025 0.202515 6500.64 71.4453 363.103 124.118 88.3981 165.35 -637.812 190.035 966.094 209.447 8088
0.2035 0.203492 6641.59 72.6189 477.435 123.348 -286.918 165.03 -16.4193 190.12 877.512 210.275 8232
0.2045 0.204495 6194.43 67.4562 579.219 117.515 118.751 156.788 -350.342 179.923 985.771 198.18 8505
0.2055 0.205495 6522.79 70.5608 228.263 122.169 29.5324 161.25 -364.131 186.203 689.586 205.775 8820
0.2065 0.206522 6115.98 65.9317 96.5944 113.86 -4.21758 155.262 -193.612 176.718 1424.85 194.144 8596
0.2075 0.2075 6191.77 66.4292 524.321 113.324 -200.559 152.141 -147.654 174.825 947.18 193.079 8475
0.2085 0.208485 6242.49 66.6063 -155.477 117.412 307.829 156.939 270.572 179.525 1123.65 197.241 8826
0.2095 0.209486 6318.13 67.0249 137.125 116.833 132.465 154.289 42.3684 177.84 730.94 196.292 8952
0.2105 0.210503 6020.27 63.6568 82.7292 111.793 234.513 150.436 484.226 171.726 1211.14 188.524 9003
0.2115 0.211504 6344.74 66.6778 -166.965 116.876 221.999 153.45 268.876 177.148 636.813 195.564 9204
0.2125 0.212491 6145.44 64.2828 282.423 112.761 214.723 146.656 227.546 170.01 386.076 188.046 8932
0.2135 0.213495 6340.22 66.0627 109.254 116.967 372.663 154.03 647.412 177.262 778.813 195.165 9189
0.2145 0.214487 6132.28 63.615 178.786 112.527 347.393 150.396 354.671 171.939 1120.93 188.784 9504
0.2155 0.215508 6230 64.3009 412.46 113.129 265.232 149.137 96.53 171.703 750.237 189.273 9492
0.2165 0.216521 5945.53 61.169 526.13 106.999 142.464 142.909 536.72 163.798 959.671 180.223 9639
0.2175 0.217522 6030.65 61.7393 581.294 108.472 214.277 143.608 361.132 165.08 803.472 181.841 9442
0.2185 0.218509 5869.87 59.8393 491.217 103.431 -14.1114 140.006 236.439 159.846 1186.98 175.828 9888
0.2195 0.219506 5716.21 58.0474 632.003 98.7211 -246.423 133.553 166.851 153.008 1008.03 168.836 9063
0.2205 0.220477 5537.18 55.9358 519.962 94.9412 -255.075 128.214 81.9363 147.074 925.889 162.401 10104
0.2215 0.221467 5611.56 56.4464 393.833 98.6622 147.571 134.19 92.0754 152.562 1345.65 167.315 9720
0.2225 0.222483 5269.11 52.777 414.907 89.2722 -269.498 122.291 -108.507 139.449 1165.1 153.674 10410
0.2235 0.223516 5462.9 54.506 255.832 94.8472 87.1249 130.877 186.252 147.989 1607.33 161.993 10363
0.2245 0.224528 5270.43 52.2837 291.243 90.2565 -20.5676 122.893 264.707 139.98 1183.73 153.834 10164
0.2255 0.225508 5182.88 51.159 238.851 87.4275 -144.457 118.553 278.399 135.558 998.338 149.368 10212
0.2265 0.226509 5226.38 51.3217 18.6286 88.7415 7.41431 118.975 359.1 136.442 860.682 150.337 10101
0.2275 0.2275 5047.79 49.4313 193.502 84.1891 -191.7 114.233 662.214 130.741 947.512 144.072 11028
0.2285 0.228518 5122.89 49.8434 -27.2106 84.322 -263.826 112.584 -49.1203 129.949 604.597 143.883 10192
0.2295 0.229503 5119.08 49.6358 -13.2253 83.8969 -266.645 114.021 224.065 130.532 954.86 144.063 10731
0.2305 0.230497 4973.91 48.0232 -71.4147 79.8109 -468.494 106.827 388.693 123.697 509.127 137.299 10632
0.2315 0.231502 5091.82 48.9232 32.6812 81.9643 -376.89 110.263 -112.45 127.088 678.806 140.756 11166
0.2325 0.232504 5112.33 48.9788 -180.206 81.1316 -504.696 111.154 178.995 127.304 962.039 140.819 10587
0.2335 0.233498 5075.29 48.3488 -103.476 80.432 -473.915 106.827 -169.609 124.126 374.798 137.971 11272
0.2345 0.234507 5144.77 48.8455 -106.088 80.9521 -505.499 110.421 -47.4864 126.716 878.863 140.268 11316
0.2355 0.235516 5206.08 49.1597 -83.9515 82.4771 -376.224 109.888 -180.854 127.219 509.145 141.119 10881
0.2365 0.236499 5177.06 48.6517 -26.8972 83.0172 -163.874 109.754 -179.323 127.043 474.512 140.72 11724
0.2375 0.237525 5198.48 48.715 212.608 82.7753 -205.772 112.216 -247.655 128.478 964.664 141.725 11388
0.2385 0.238512 5164.9 48.1981 393.39 82.3336 -176.693 108.881 456.377 126.013 465.688 139.518 11367
0.2395 0.239504 5153.38 47.9037 435.89 80.8016 -311.499 108.284 -34.8657 124.841 663.998 138.206 11530
0.2405 0.24048 4910.25 45.4919 519.287 77.1746 -246.609 103.698 231.508 119.256 709.17 131.814 11448
0.2415 0.241485 4919.06 45.468 537.854 74.651 -639.541 101.255 402.229 116.802 635.476 129.61 12003
0.2425 0.242507 4924.49 45.2685 472.053 75.0851 -505.533 101.531 223.853 116.998 669.573 129.685 12252
0.2435 0.243503 4740.69 43.3894 299.989 70.9121 -629.287 96.3193 -44.3308 111.124 632.469 123.406 11832
0.2445 0.244492 4628.47 42.1631 300.147 69.5653 -521.671 93.7252 120.33 108.332 534.467 120.274 11698
0.2455 0.245486 4749.38 43.1402 209.038 70.2769 -649.807 97.0937 -58.4684 111.148 921.761 123.149 12675
0.2465 0.246511 4558.59 41.1355 261.784 69.636 -234.471 92.8152 42.6738 107.204 511.094 118.726 12432
0.2475 0.247514 4504.22 40.5303 202.389 67.9104 -330.235 92.9236 129.407 106.225 899.842 117.285 12432
0.2485 0.248532 4527.72 40.6477 421.035 66.9016 -538.443 91.6122 207.793 105.096 784.072 116.396 12621
0.2495 0.249501 4363.89 38.9983 295.253 64.4729 -472.867 88.174 376.553 101.138 758.036 111.927 12300
0.2505 0.250493 4299.9 38.3044 281.512 61.9265 -684.53 84.8765 268.339 97.7445 635.038 108.572 12472
0.2515 0.251508 4268.5 37.9982 177.146 59.2526 -998.334 83.6472 203.337 95.6962 858.744 106.488 13275
0.2525 0.25251 4261.11 37.7351 227.591 59.1525 -1007.7 79.3968 179.033 93.2552 92.7167 104.47 12840
0.2535 0.253509 4214.49 37.1651 -53.4968 58.1084 -972.571 80.4473 6.08761 92.9316 559.605 103.666 12990
0.2545 0.254507 4281.32 37.5306 62.0413 59.7689 -828.135 80.9624 45.0381 94.169 350.842 105.083 13083
0.2555 0.255495 4197.05 36.7707 -0.438475 57.0122 -1068.55 78.1241 -400.285 91.015 333.841 101.789 12820
0.2565 0.256484 4336.76 37.7211 65.6749 60.3431 -779.282 82.924 119.783 95.6042 619.543 106.354 13776
0.2575 0.257512 4315.34 37.3719 137.904 60.6653 -637.109 82.3492 -455.458 95.2418 522.851 105.866 13257
0.2585 0.258495 4187.16 36.1767 115.966 57.1101 -881.195 78.504 -8.08753 90.8025 512.394 101.238 13704
0.2595 0.259503 4283.18 36.8392 195.177 59.6621 -637.362 83.0032 -207.107 94.8225 910.632 105.047 13548
0.2605 0.260513 4213.58 36.0849 141.177 57.6816 -773.933 78.5995 58.7153 91.039 462.5 101.429 14115
0.2615 0.261524 4218.32 35.9341 64.427 58.6031 -576.087 79.5526 -149.905 91.8621 538.254 102.058 13756
0.2625 0.262493 4284.22 36.3651 19.6555 59.0785 -621.903 80.4686 114.257 92.8448 574.316 103.16 13338
0.2635 0.263489 4318.61 36.5013 76.3983 59.589 -582.899 80.5286 -112.707 93.1778 484.274 103.583 14523
0.2645 0.264517 4195.15 35.2671 59.9557 59.1349 -312.818 78.0245 -137.752 90.7831 254.965 100.9 14376
0.2655 0.265505 4308.52 36.1587 234.919 59.0103 -590.269 79.8106 40.2355 92.3133 492.016 102.616 14052
0.2665 0.266496 4255.68 35.5444 174.856 58.9876 -415.577 78.7789 -280.51 91.3468 395.506 101.465 14002
0.2675 0.267487 4255.4 35.3779 121.138 59.2186 -338.337 77.7827 -142.319 90.7486 178.169 100.98 14919
0.2685 0.268508 4183.96 34.6968 259.533 57.5282 -418.056 77.0127 -209.981 89.2043 422.793 99.0637 14652
0.2695 0.269508 4002.54 33.0963 191.023 54.8214 -395.074 75.0662 -269.091 86.0077 748.218 95.1401 14796
0.2705 0.2705 4193.41 34.5165 355.936 57.9093 -310.681 76.3197 -250.115 88.846 250.815 98.7543 14307
0.2715 0.271486 3909.54 32.0693 178.772 52.5674 -496.678 70.7317 26.3686 81.9392 396.971 91.097 15198
0.2725 0.272494 3928.79 32.0915 197.649 53.6818 -305.324 72.5569 -69.9288 83.4638 588.966 92.3875 15064
0.2735 0.273512 3816.39 31.0805 261.257 51.5302 -389.375 69.4502 178.101 80.1716 469.777 88.9238 15399
0.2745 0.274518 3887.85 31.5475 68.8846 51.5036 -558.615 66.9348 -13.8315 79.0714 -120.83 88.5233 15660
0.2755 0.275532 3742.02 30.2336 127.381 50.4748 -326.34 66.9909 374.171 77.8276 276.243 86.4432 15030
0.2765 0.276517 3835.09 30.8896 2.76743 50.2705 -556.678 67.0549 79.3901 78.1803 224.276 87.1565 15567
0.2775 0.277527 3814.87 30.5855 11.3594 50.9358 -362.837 65.9659 193.412 77.6384 -66.2405 86.6981 15784
0.2785 0.278518 3739.73 29.9181 223.512 49.0966 -476.131 65.8631 225.908 76.4076 335.197 84.9655 15468
0.2795 0.279515 3877.31 30.8737 113.089 51.3379 -366.941 68.6025 272.875 79.4875 368.814 88.2493 15525
0.2805 0.280485 3766.49 29.9435 223.828 48.6449 -581.051 64.7995 322.727 75.6656 177.453 84.3762 15768
0.2815 0.281494 3718.77 29.5333 290.755 47.281 -683.192 65.3442 385.227 75.1295 597.395 83.4621 16500
0.2825 0.282514 3684.4 29.1858 314.583 45.7711 -873.148 61.6369 153.769 72.252 122.447 80.8933 15931
0.2835 0.283496 3755.8 29.5818 312.614 47.4184 -669.599 64.7577 -46.2833 74.862 464.285 83.3388 16332
0.2845 0.284501 3547.63 27.9264 111.448 43.4754 -831.397 61.7604 -109.174 70.4477 796.63 78.3511 16434
0.2855 0.285487 3535.57 27.7527 33.6428 43.1679 -848.655 60.7845 -485.253 69.7294 662.888 77.6132 16071
0.2865 0.286493 3563.82 27.8159 369.2 44.4383 -654.856 61.3667 -167.857 70.5932 580.271 78.4903 17016
0.2875 0.287479 3549.07 27.611 214.674 44.8388 -498.299 63.7216 -154.84 71.9987 1079.45 79.4642 16356
0.2885 0.288494 3479.61 27.0013 225.408 42.8699 -664.407 60.6662 -318.507 69.0375 862.208 76.5448 17302
0.2895 0.289495 3423.54 26.3666 171.865 42.784 -508.393 58.0731 -206.518 67.1517 413.485 74.6665 16791
0.2905 0.290484 3312.98 25.5243 420.474 40.8124 -608.369 56.2842 -159.864 64.7762 530.259 72.0287 17004
0.2915 0.29148 3307.13 25.3819 283.178 39.8296 -757.769 54.2013 -95.3919 63.1438 253.015 70.5805 17136
0.2925 0.292502 3288.67 25.0808 304.551 42.1512 -221.977 55.8165 -536.389 64.8572 276.522 71.9535 17991
0.2935 0.293515 3269.46 24.8962 161.211 39.7683 -638.4 52.1375 -435.196 61.7443 -94.8753 69.2078 17326
0.2945 0.294489 3158.69 23.9617 385.139 39.4905 -366.769 52.2571 -452.616 61.0263 177.079 67.9511 17052
0.2955 0.29551 3131.8 23.6513 289.924 39.0347 -350.006 51.7526 -454.589 60.3577 196.372 67.1641 18543
0.2965 0.29651 3139.58 23.5733 214.25 40.4815 -49.7048 53.0635 -383.759 61.6199 223.209 68.2683 17352
0.2975 0.297502 3006.63 22.5367 235.668 37.2228 -321.688 50.3793 -301.737 58.1053 419.631 64.43 17838
0.2985 0.298499 2987.89 22.2597 122.603 38.0138 -86.7003 50.6681 -61.1678 58.4088 373.853 64.5847 18099
0.2995 0.299499 2984.63 22.1804 116.179 38.7105 71.4119 52.2588 46.0338 59.6263 615.959 65.5049 18256
0.3005 0.300504 3016.96 22.3607 124.831 37.3501 -245.846 50.9393 167.977 58.3663 546.304 64.5129 18444
0.3015 0.301499 2905.18 21.4931 7.46568 37.7452 109.508 51.2223 473.518 58.2999 685.294 63.8615 17871
0.3025 0.302504 3047.08 22.4638 -139.128 37.9586 -158.36 51.9357 420.624 59.3136 657.691 65.3543 19314
0.3035 0.303496 2946.16 21.6734 -38.1268 36.5912 -174.442 49.265 687.052 56.7833 428.884 62.6946 17868
0.3045 0.304494 2963.01 21.81 -119.582 35.6951 -373.35 50.0674 709.037 56.9636 784.123 62.8035 19027
0.3055 0.305493 3172.05 23.1591 -148.419 39.6389 -74.2711 52.9414 644.595 61.0406 438.392 67.3605 19164
0.3065 0.306512 3084.67 22.488 -150.778 36.7264 -410.743 50.078 596 57.7618 461.208 64.0387 19170
0.3075 0.307506 3190.61 23.1288 -214.48 38.6862 -244.951 52.3439 382.479 60.2172 501.427 66.6168 18879
0.3085 0.3085 3051.09 22.046 -22.7147 37.4351 -133.428 50.5038 537.612 58.0281 496.684 64.0226 19320
0.3095 0.309487 3256.47 23.4293 88.1675 39.3619 -216.933 53.8336 129.344 61.5219 657.728 67.8981 19152
0.3105 0.310483 3294.15 23.6079 120.865 40.1123 -134.116 54.289 82.1761 62.2003 584.192 68.6381 19204
0.3115 0.311482 3053.77 21.962 285.497 35.9671 -388.865 51.3514 227.86 57.8015 1020.08 63.6447 20025
0.3125 0.312492 3171.3 22.6612 339.574 38.7098 -96.4351 53.5687 31.9268 60.6853 882.137 66.6347 20184
0.3135 0.313504 3062.92 21.9977 349.026 35.297 -514.519 51.9231 -28.8065 57.8373 1318.11 63.687 19596
0.3145 0.314503 3033.43 21.6151 194.295 34.5004 -538.38 49.646 -122.023 55.9494 983.852 61.8391 20451
0.3155 0.315506 2887.24 20.5452 213.987 32.9806 -480.409 48.0544 95.3511 53.7694 1114.06 59.2676 19918
0.3165 0.316502 3029.28 21.5018 145.213 34.5778 -483.001 50.7675 -62.948 56.5871 1286.17 62.2913 20532
0.3175 0.317517 2955.56 20.8912 -47.0629 32.4275 -704.182 46.9638 -226.984 53.0831 870.134 58.9071 20355
0.3185 0.318503 2992.16 20.9782 -91.3588 34.508 -336.405 48.6412 -43.999 55.0309 870.825 60.6682 20652
0.3195 0.319505 3056.37 21.3706 -135.421 34.6451 -445.35 48.8255 -40.767 55.4063 809.061 61.2495 20334
0.3205 0.320504 3024.37 21.0563 -43.3266 34.3103 -412.109 47.6641 -252.949 54.427 649.349 60.2334 20955
0.3215 0.321507 3087.63 21.3853 -125.861 36.2621 -143.095 49.3617 -206.791 56.434 605.876 62.2248 21268
0.3225 0.322507 3120.42 21.6064 -28.0476 35.8749 -283.582 50.6498 -70.043 57.16 980.697 62.8878 20736
0.3235 0.323503 3077.15 21.2266 80.2863 35.5656 -217.656 49.5953 -280.601 56.2124 858.122 61.8501 21267
0.3245 0.324518 3089.05 21.242 117.392 36.2592 -87.4501 50.6203 -7.48853 57.1339 970.444 62.6448 21714
0.3255 0.325499 2990.97 20.5289 148.519 34.6209 -171.928 48.7865 145.59 54.9532 994.362 60.2968 20784
0.3265 0.326502 3141.74 21.5157 194.423 36.1088 -215.354 51.1898 94.7225 57.5504 1101.21 63.1484 21907
0.3275 0.327504 2837.83 19.3802 173.923 31.3125 -439.177 44.3731 154.553 50.2578 793.738 55.5417 21876
0.3285 0.328508 3009.24 20.4456 165.372 33.4303 -388.691 46.5599 141.548 53.0484 693.283 58.6561 21786
0.3295 0.3295 2999.89 20.3214 85.0211 33.1513 -394.277 46.4656 -15.2075 52.7999 761.168 58.3505 21687
0.3305 0.33049 2853.46 19.2505 -28.6401 31.0169 -468.073 42.3642 -53.2496 48.9092 375.181 54.3964 21936
0.3315 0.331484 3004.36 20.2068 -15.3931 33.7497 -236.566 46.8606 -180.773 53.2415 764.17 58.6658 22432
0.3325 0.332487 2957.37 19.8373 163.297 33.0715 -244.985 45.8348 -146.66 52.1375 727.069 57.4902 22296
0.3335 0.333499 2931.87 19.5717 172.818 33.4638 -74.9427 45.3526 -43.7698 51.8614 566.845 57.1497 22905
0.3345 0.3345 2968.07 19.7929 257.194 33.5856 -134.783 46.3091 78.7414 52.6142 744.97 57.8797 22848
0.3355 0.335505 2766.58 18.5182 360.336 29.7648 -469.408 42.8236 85.4888 48.1882 925.328 53.1986 22368
0.3365 0.33649 2814.71 18.7019 327.058 30.5073 -390.006 42.4402 68.1604 48.3997 626.336 53.5545 23019
0.3375 0.337508 2673.04 17.7522 417.477 28.459 -510.125 38.9692 195.181 44.9939 337.347 50.0564 23686
0.3385 0.338499 2742.56 18.163 167.351 28.4158 -610.087 40.7599 -46.6026 46.2039 747.44 51.2773 22368
0.3395 0.339475 2614.61 17.26 87.0257 26.7134 -648.63 37.8497 -194.689 43.3048 534.1 48.2223 22731
0.3405 0.340485 2694.37 17.6868 71.5298 28.1195 -509.034 39.5753 -61.599 45.1342 607.644 50.0798 25020
0.3415 0.341514 2610.75 17.0829 77.8979 27.574 -404.451 38.7441 -222.594 44.085 643.135 48.785 23304
0.3425 0.3425 2711.97 17.7002 49.6042 28.7831 -372.24 40.8112 -190.333 46.1568 802.287 50.9413 23077
0.3435 0.343485 2661.74 17.3012 127.486 28.2922 -337.685 39.6783 40.8658 45.0518 691.73 49.7612 24516
0.3445 0.344505 2547.54 16.5329 222.995 27.1017 -314.908 38.1634 68.5837 43.2244 714.259 47.6918 24072
0.3455 0.3455 2569.79 16.6466 252.7 26.677 -450.962 37.5742 53.3496 42.7547 621.185 47.3686 23883
0.3465 0.346494 2490.09 16.1234 234.479 25.3313 -563.263 35.788 325.38 40.875 524.813 45.3973 24294
0.3475 0.3475 2509.62 16.1909 275.433 25.4212 -568.799 35.6604 160.587 40.8651 466.924 45.4589 25296
0.3485 0.348533 2388.65 15.3765 104.497 23.7178 -615.214 33.8196 198.309 38.5983 522.758 42.9653 24595
0.3495 0.349511 2432.19 15.6813 123.55 23.4942 -769.886 34.3565 204.563 38.9679 635.07 43.4548 24360
0.3505 0.350491 2384.84 15.2702 126.888 23.5577 -622.386 33.4214 278.755 38.2578 470.482 42.6035 24318
0.3515 0.351508 2322.09 14.8721 53.457 22.3687 -712.192 32.6166 198.731 37.0164 601.175 41.2655 25923
0.3525 0.352497 2385.67 15.2462 41.6425 22.8629 -764.539 32.8578 375.699 37.6499 463.76 42.0387 24096
0.3535 0.353486 2327.2 14.8126 16.0454 22.0888 -763.829 31.7641 75.6362 36.4021 440.604 40.7135 25912
0.3545 0.354489 2317.61 14.7781 6.46558 21.5454 -869.297 31.5575 283.555 36.0428 494.073 40.3527 25047
0.3555 0.355503 2374.56 15.0174 74.7986 22.5133 -762.576 32.0058 101.208 36.8644 368.685 41.2516 26226
0.3565 0.356493 2379.87 14.998 -53.805 22.6005 -729.986 32.2543 27.6816 37.0115 430.774 41.3653 25308
0.3575 0.357486 2287.06 14.4367 30.3307 21.1765 -818.512 31.1052 -38.581 35.3828 545.398 39.5849 25512
0.3585 0.358484 2338.41 14.7162 168.856 21.76 -811.682 31.6949 99.8134 36.1467 514.497 40.4216 26475
0.3595 0.359507 2416.28 15.1679 44.7595 22.4475 -809.308 33.3448 -68.0802 37.6058 729.378 41.9609 26914
0.3605 0.360503 2322.35 14.5086 118.058 21.7699 -718.257 31.8863 -54.1849 36.1096 637.588 40.2612 25584
0.3615 0.361503 2291.43 14.3109 154.536 21.0544 -811.41 30.8953 20.3336 35.1331 550.871 39.2919 26883
0.3625 0.362512 2333.3 14.6239 36.6358 20.7306 -980.072 31.6465 2.72263 35.5529 740.222 39.847 26940
0.3635 0.363494 2423.02 15.0922 63.2841 22.5473 -750.326 34.3665 -206.375 38.1606 1044.57 42.3957 25776
0.3645 0.364501 2216.74 13.7489 28.6549 20.062 -807.068 29.9713 -6.42194 33.8179 652.53 37.8012 27637
0.3655 0.365506 2455.71 15.1744 -54.0447 22.7151 -756.823 34.1903 -85.9161 38.1858 933.183 42.4666 27156
0.3665 0.366508 2399.66 14.7236 25.7668 22.7199 -592.054 33.4872 -74.0024 37.5552 855.367 41.6366 26904
0.3675 0.367499 2413.81 14.7809 -95.2594 23.1006 -530.871 34.251 -54.5605 38.1988 983.958 42.2236 27483
0.3685 0.368504 2436.14 14.8183 36.2176 23.3779 -491.56 33.7848 -89.6342 38.0865 775.475 42.16 27462
0.3695 0.369506 2521.89 15.278 102.308 24.5174 -419.219 35.1336 22.0943 39.6296 794.785 43.7837 28164
0.3705 0.370498 2410.65 14.556 6.41413 23.8386 -290.894 34.1352 -31.5349 38.3681 843.389 42.2328 26395
0.3715 0.37149 2468.25 14.8787 243.656 24.1257 -359.156 34.2875 -96.5513 38.7495 747.956 42.7818 29184
0.3725 0.372502 2457.32 14.7994 264.752 23.9945 -361.6 34.5383 23.026 38.7933 870.474 42.7544 27852
0.3735 0.373503 2408.49 14.4568 210.323 23.578 -313.136 33.7498 -247.627 37.9852 833.901 41.8377 27993
0.3745 0.374489 2316.89 13.9324 322.462 22.3325 -398.981 32.64 -53.2645 36.4734 930.735 40.2054 28488
0.3755 0.375503 2384.34 14.2956 179.984 23.1062 -354.554 34.1349 -131.649 37.9111 1109.38 41.6596 29020
0.3765 0.376483 2267.08 13.5906 237.368 21.5236 -436.25 32.0686 -157.77 35.5992 1050.82 39.2325 27363
0.3775 0.37749 2260.27 13.5313 219.594 21.6189 -394.522 32.4767 -69.5288 35.8577 1170.96 39.4187 30114
0.3785 0.378504 2231.54 13.2774 106.104 21.3496 -354.522 31.6113 -232.853 35.1137 1036.35 38.6034 29316
0.3795 0.379519 2266.4 13.4313 108.091 21.3775 -411.053 31.5825 -13.5947 35.1638 976.06 38.7546 29208
0.3805 0.380514 2194.41 12.9313 -28.3395 21.5324 -186.189 31.1332 -173.078 34.7496 929.11 38.0688 29059
0.3815 0.381486 2170.7 12.8105 83.3795 20.6323 -337.368 30.5841 -163.217 33.9391 1024.28 37.3002 28620
0.3825 0.382499 2327.86 13.5967 -6.92662 22.6703 -189.039 32.1065 -15.5608 36.154 780.05 39.7265 30894
0.3835 0.383513 2200.13 12.8209 -34.2642 22.7436 135.62 31.4955 -234.412 35.4652 749.122 38.6406 29235
0.3845 0.384504 2221.59 12.9251 96.1848 21.3817 -219.709 30.505 -41.217 34.2835 784.925 37.6856 30192
0.3855 0.385496 2168.49 12.5849 130.627 22.0605 74.4643 30.8543 -190.88 34.6615 802.541 37.7898 29784
0.3865 0.386513 2263.12 13.0534 214.196 22.9484 93.521 30.8964 -102.512 35.249 472.411 38.691 30769
0.3875 0.387513 2122.31 12.3295 212.05 21.2024 -33.3512 30.78 -14.2674 34.1302 1080.58 37.1432 30624
0.3885 0.388517 2083.17 11.9975 211.995 20.3285 -95.4743 28.5506 -148.975 32.1858 692.552 35.3024 30468
0.3895 0.389508 2117.82 12.2303 280.267 21.2673 15.1228 30.4659 47.7938 33.9126 986.627 36.899 30195
0.3905 0.390501 2030.37 11.692 165.62 19.4268 -186.495 28.4106 51.6556 31.5545 958.937 34.5366 31146
0.3915 0.391497 2044.25 11.7375 173.202 19.371 -223.013 28.2502 167.996 31.4518 905.294 34.4762 30676
0.3925 0.39248 2018.6 11.5181 8.14368 19.0077 -210.98 27.3069 172.367 30.6134 762.769 33.6255 30315
0.3935 0.393483 2045.02 11.6628 44.4689 18.7312 -334.124 27.3117 138.595 30.5528 796.983 33.6658 32256
0.3945 0.394478 2014.04 11.4431 35.5929 18.4602 -312.126 26.6444 193.36 29.9304 713.246 32.9929 30972
0.3955 0.395481 2120.62 11.9734 37.1669 19.6029 -262.205 27.5549 121.476 31.2488 574.275 34.4919 31881
0.3965 0.396488 2030.84 11.4647 89.328 18.6873 -274.992 26.6127 223.58 30.0283 639.162 33.0976 32412
0.3975 0.397503 2067.41 11.6433 80.9873 18.6362 -356.566 26.6781 61.2586 30.124 631.606 33.3015 32176
0.3985 0.398487 1982.96 11.1686 181.153 17.2861 -503.917 24.5329 113.832 28.0403 409.282 31.2186 31287
0.3995 0.399498 1987.68 11.1625 203.493 17.5824 -427.144 25.0806 124.585 28.4697 514.036 31.5779 33654
