### header ###
fiducial parameters:
Omega_m = 0.31
Omega_nu = 0
Omega_de = 0.69
Omega_k = 0
H_0 = 100
w_de = -1
zeff = 0
beta = 0
fgrowth = 0
b_1 = 2
gamma = 0.55
Lx = 5000 Ly = 5000 Lz = 5000
nx = 600 ny = 600 nz = 600
xoffset = -982.047 yoffset = -47.9468 zoffset = 798.097
bins = 300 dk = 0.001
kx_ny = 0.376991 ky_ny = 0.376991 kz_ny = 0.376991
############################
A(data) = 8.9751 (not used)
A(ran) = 8.9771 (used)
Ngal = 435761
weighted Ngal = 467524
Nran = 22769125
weighted Nran = 2.27691e+07
SN(data) = 6136.32
SN(ran) = 126.024
SN(data+ran) = 6262.34
############################
9 columns: k_central k_mean P_0(k) P^img_1(k) P_2(k) P^img_3(k) P_4(k) sigma^{lin}_{P(k)} N_modes
### header ###
0.0005 0 0 0 0 0 0 0 0
0.0015 0.00160365 193265 -58533.5 41904.7 100013 99389.4 153544 9
0.0025 0.00262975 151768 80501.1 15325.6 -58130.8 123572 96155.9 19
0.0035 0.00361107 94847.8 27032.2 60721 26942.6 67628.6 53995.6 45
0.0045 0.00451235 96456.3 -17039 46486.5 72269.5 -33030.8 50453 52
0.0055 0.00550002 108334 -21472.9 10288.2 67468 -2471.04 36664.5 105
0.0065 0.00656173 114925 777.567 -16265 26469.6 13889.5 32425.5 139
0.0075 0.00751145 113640 3076.48 -11377.4 -18461.3 7439.18 30802.5 153
0.0085 0.00849615 99336.4 20941.7 14156.6 -50699.9 2138.41 23054.4 253
0.0095 0.00951206 77153.1 20243.2 36067 -26898.2 17296.7 20737.6 276
0.0105 0.0105054 56259.3 3835.34 30766.7 13165.9 4400.68 17323.3 349
0.0115 0.011559 59800.5 -5994.23 24795.2 26385.9 3874.4 15075 471
0.0125 0.0125983 63484.7 -3194.19 4206.17 19800.7 6097.08 15148.6 477
0.0135 0.0135178 67262.3 -4360.76 -2683.39 981.018 15019.6 14632.3 523
0.0145 0.014486 68702.7 811.679 -6228.96 -2872.69 5734.18 12793.9 690
0.0155 0.0155344 68324.8 1968.76 -1729.3 -18781 -477.994 11920.7 793
0.0165 0.0165377 66535.4 3977.29 4078.46 -10521.3 757.054 11500.2 843
0.0175 0.0175152 64620.7 -1609.34 9548.01 1321.82 -11857.7 10776.7 949
0.0185 0.0184887 68706.7 -1685.03 17421.2 899.945 -11203.8 10327.3 1059
0.0195 0.0194872 66413.1 2728.28 13961 -823.159 -7527.17 9501.7 1234
0.0205 0.0205055 65372 2960.59 21240.8 -2134.16 -2310.17 9106.71 1335
0.0215 0.0215274 64741.7 812.169 25250.9 3027.98 -1365.77 8538.06 1513
0.0225 0.0225206 60066 4050.5 25681.2 -525.889 460.477 8314.09 1551
0.0235 0.0234887 57390.5 2990.52 28476.4 1988.79 11515.4 7920.89 1681
0.0245 0.0244871 56501.1 696.859 30029.2 1627.7 7567.69 7289.42 1974
0.0255 0.0255182 54272.9 4328.45 34523.7 -1665.34 1152.22 7013.72 2103
0.0265 0.0265409 47925.2 3555.19 32523.3 -4148.35 6176.53 6601.59 2281
0.0275 0.0275236 46901 546.405 35324.1 2677.47 5716.12 6594.62 2271
0.0285 0.0285018 47590 -1622.71 31089 9912.74 4759.78 6185.12 2593
0.0295 0.0295097 47068.6 -730.735 23749.2 6588.12 5507.14 5959.3 2784
0.0305 0.0304968 49582.3 30.0079 22371.6 187.723 3441.58 5942.2 2845
0.0315 0.0314833 46798 2217.89 21475.2 -1200.26 6717.52 5616.34 3129
0.0325 0.0324995 45812.1 -517.768 19701.4 5492.07 8654.02 5321.88 3463
0.0335 0.0335076 48502.4 -2526.29 16195.5 5456.84 3812.71 5329.26 3513
0.0345 0.0344993 49208.5 494.607 11612.3 -928.685 1660.11 5171.02 3748
0.0355 0.0354943 48170.7 1455.81 12148.7 -2570.9 399.162 5008.51 3969
0.0365 0.0365015 46123.6 1492.71 12369.5 -321.836 2975.25 4787.91 4287
0.0375 0.0375128 44517.7 1190.27 14345 1426.72 -2884.09 4654.98 4489
0.0385 0.0385007 43039.7 2128.27 17987.7 -1611.21 -1242.6 4601.25 4551
0.0395 0.0394922 40032 2122.91 16331.4 -1884.67 1154.42 4346.39 5002
0.0405 0.040498 38531.4 564.135 17308.3 1848.07 983.809 4249.8 5181
0.0415 0.0414996 37517.3 887.914 16948.4 2931.82 1260.34 4118.91 5479
0.0425 0.0425076 36636.9 337.817 15765.8 2706.48 3590.02 4002.46 5769
0.0435 0.0434957 36396.5 -16.205 14770 3341.77 4154.05 3975.25 5839
0.0445 0.0444851 37268.6 -783.727 12722 2098.69 4536.69 3839.86 6294
0.0455 0.0454959 37324.8 140.181 11907.3 444.627 4028.2 3738.32 6643
0.0465 0.046507 36627.7 388.545 10924.8 170.965 3916.34 3663.64 6885
0.0475 0.0475122 36315.3 863.598 11195.4 -1011.88 3000.16 3584.65 7177
0.0485 0.0484973 34865 1183.42 12839.5 -1284.33 3723.17 3552.95 7236
0.0495 0.0494906 34081.4 1187.61 13716.2 -852.604 3651.95 3398.22 7869
0.0505 0.0505067 33047.9 -202.163 12907.4 1117.81 1763.45 3319.34 8191
0.0515 0.0515075 33140.9 706.151 12922.3 558.977 727.641 3298.29 8301
0.0525 0.0524969 32461.7 731.771 12227.2 179.952 3504.54 3226.56 8635
0.0535 0.0534964 31865.7 -343.33 10769 1688.6 2674.68 3122.08 9186
0.0545 0.0545065 32138.1 -188.918 10679.3 705.96 -97.9053 3078.85 9463
0.0555 0.0554978 31732.4 903.415 9621.25 0.644037 -1283.62 3072.4 9477
0.0565 0.0565002 31072.3 483.827 9895.68 139.544 -75.2822 2922.35 10429
0.0575 0.0575117 30688 76.6691 9856.02 1126.65 -547.545 2921.67 10407
0.0585 0.0584975 30612.9 12.0806 9145.47 821.408 -1399.02 2886.88 10654
0.0595 0.0594941 30488.1 146.819 8707.09 266.472 -2304.79 2802.59 11295
0.0605 0.0605048 29955.8 1113.87 9256.97 -932.062 -972.401 2748.62 11701
0.0615 0.0615084 28961.1 535.098 10739.3 276.107 -652.62 2710.17 11955
0.0625 0.0625007 28545.9 368.473 10366.6 1001.65 1352.08 2676.32 12225
0.0635 0.0634839 28610.5 -623.397 9947.13 2465.72 575.957 2647.08 12502
0.0645 0.0644966 28952.1 617.005 10125.8 -551.152 -215.035 2528.75 13731
0.0655 0.0655208 28051.9 735.152 10351 -977.216 1562.94 2526.78 13669
0.0665 0.0665163 27895.2 -230.898 9417.59 1067.96 2447.03 2514.25 13791
0.0675 0.0675026 28619.4 -578.894 8903.5 1219.32 -7.17221 2474.72 14305
0.0685 0.0685029 28347.1 785.229 8351.08 -1530.63 -487.69 2413.52 15012
0.0695 0.0695101 27722.3 449.251 8089.8 -489.13 -7.09101 2383.7 15325
0.0705 0.0705072 26639.5 610.322 7994.12 726.629 -1095.55 2354.6 15591
0.0715 0.0715008 25965 615.223 8510.52 -357.238 -1868.73 2311.41 16105
0.0725 0.0725026 25251.2 941.339 9081.1 -17.7301 -1786.95 2253.77 16857
0.0735 0.0735052 24680.5 19.5046 8399.4 997.853 -1662.83 2240.42 16992
0.0745 0.0745065 24904.6 -111.493 8159.48 742.862 -3095.9 2196.78 17701
0.0755 0.0755112 24291.2 530.52 8345.04 -1603.4 -2915.35 2167.93 18099
0.0765 0.0765054 23523 737.903 8484.85 -955.146 -988.862 2151.66 18277
0.0775 0.0774994 23383.9 201.738 8203.86 1434.32 -105.318 2105.39 19071
0.0785 0.0784956 23152.2 -309.308 7845.74 2009.31 -724.05 2089.57 19330
0.0795 0.0794981 23498.5 210.256 7119.32 775.551 474.935 2046.26 20205
0.0805 0.0805053 23021.4 176.25 6813.1 462.297 1435.99 2021.51 20635
0.0815 0.0815026 22625.6 513.066 6900.75 -442.685 2042.02 2009.91 20817
0.0825 0.0824987 22146.6 503.815 6664.32 286.687 3135.76 1968.47 21631
0.0835 0.0834991 21345.1 363.76 6165.71 170.397 2851.96 1944.81 22038
0.0845 0.0845015 21085.6 385.865 6727.42 257.177 2797.91 1914.56 22699
0.0855 0.0855033 20467.2 481.006 6324.33 503.993 3967.71 1892.45 23133
0.0865 0.0865031 19936.3 325.18 6216.77 96.1305 3439.88 1865.64 23715
0.0875 0.0874952 19799.8 327.986 6253.83 -248.625 3032.76 1861.07 23809
0.0885 0.0884917 19280.8 185.174 5810.97 185.474 3475.54 1808.94 25110
0.0895 0.0895049 19547 -177.048 5793.79 791.017 2295.27 1791.42 25651
0.0905 0.0905061 19080.9 610.592 5320.79 -428.614 1774.46 1785.52 25737
0.0915 0.091502 18684.1 465.576 5857.3 -958.33 1796.25 1756.3 26527
0.0925 0.0925065 18063.4 393.174 6713.51 -282.046 1644.98 1727.97 27285
0.0935 0.093509 17786.2 147.658 6234.95 97.3203 747.848 1713.68 27688
0.0945 0.094506 17990.1 -338.483 6099.01 1128.1 441.275 1704.08 28041
0.0955 0.095502 17960.7 306.333 5505.93 371.463 262.282 1679.87 28849
0.0965 0.096505 17595.1 151.625 5033.92 274.166 1220.17 1652.43 29739
0.0975 0.0974984 17662.1 -35.7098 4760.47 238.532 750.943 1659.66 29494
0.0985 0.0984988 17272.8 476.731 4600.62 -218.977 598.939 1607.97 31335
0.0995 0.0995045 16881.4 373.837 4597.78 -243.599 1590.84 1611.17 31125
0.1005 0.100504 16538 253.813 4733.92 499.368 1425.24 1585.91 32047
0.1015 0.101504 16186.6 272.285 4802.02 374.312 962.596 1570.14 32613
0.1025 0.1025 15836.2 350.066 5084.52 285.449 1988.51 1557.18 33076
0.1035 0.1035 15669.8 67.3808 4844.29 440.043 1804.97 1534.32 34029
0.1045 0.104501 15512.2 212.291 4872.55 -7.9062 1446.29 1521.88 34549
0.1055 0.105505 15187.9 366.734 4732.26 -362.688 1483.71 1498.39 35559
0.1065 0.10651 14814.7 338.453 4774.2 -320.923 1758.03 1488.19 35953
0.1075 0.107507 14568.3 -32.6189 4698.46 393.793 1592.81 1476.36 36468
0.1085 0.108504 14629.6 50.4024 4447.27 184.011 944.641 1464.66 37069
0.1095 0.109509 14607.1 46.9919 4113.54 137.291 588.989 1435.97 38559
0.1105 0.110512 14402.1 427.729 4103.82 -276.68 624.856 1440.42 38265
0.1115 0.111503 14099.3 53.1585 4248.47 80.5576 483.348 1423.27 39109
0.1125 0.112503 14025 105.565 4219.47 262.684 -124.154 1400.73 40356
0.1135 0.113504 14061.1 16.1654 3863.09 540.461 -735.907 1396.54 40609
0.1145 0.114507 13974.9 179.388 4117 -13.0862 -918.336 1374.72 41883
0.1155 0.115504 13669 410.723 4426.72 -678.398 -1042.41 1377.01 41653
0.1165 0.116496 13362.7 297.632 4569.73 -604.97 -564.493 1355.89 42867
0.1175 0.117493 13253.2 -111.524 4221.31 534.2 -145.813 1343.27 43642
0.1185 0.118496 13528.9 -266.33 3924.2 751.182 -804.854 1329.08 44667
0.1195 0.119501 13665.8 125.147 3668.38 161.877 -206.878 1318.64 45421
0.1205 0.120503 13444.6 294.255 3564.32 1.90629 215.074 1309.21 46005
0.1215 0.121501 13396.4 -35.2833 3647.48 138.511 208.8 1301.74 46519
0.1225 0.122498 13408.4 166.453 3923.74 -83.8129 -326.704 1286.95 47598
0.1235 0.123498 13237.2 246.05 4097.02 -481.779 -433.688 1279.61 48087
0.1245 0.124503 13025 314.232 4446.24 -556.688 -223.725 1257.21 49741
0.1255 0.125508 12848.6 3.07566 4323.32 295.847 114.29 1256.69 49719
0.1265 0.126499 12986.6 -151.242 4111.02 730.423 -42.6114 1254.77 49921
0.1275 0.127495 13097.7 134.326 3752.77 260.936 2.8383 1231.45 51870
0.1285 0.128504 12719.6 421.406 3598.18 -204.108 348.742 1219.8 52723
0.1295 0.129509 12316.6 294.465 3755.54 -212.772 359.387 1212.38 53217
0.1305 0.130507 12126.8 79.603 3833.86 53.5013 190.206 1206.97 53623
0.1315 0.131501 11992.6 151.301 3674.8 102.307 -114.893 1197.55 54417
0.1325 0.132497 11938.5 12.0749 3268.59 259.485 -252.012 1184.51 55600
0.1335 0.133502 11877.5 102.766 3033.59 284.99 -328.907 1171.5 56817
0.1345 0.134505 11802.9 145.241 2945.14 93.4449 -427.246 1166.78 57247
0.1355 0.135494 11501.9 281.01 3022.85 -281.134 -285.402 1168.82 56925
0.1365 0.13649 11326.6 146.612 3102.16 -56.8084 -490.186 1139.72 59793
0.1375 0.1375 11226.3 79.4415 3007.72 423.265 -335.191 1135.49 60196
0.1385 0.138504 11108.3 146.305 2934.94 210.496 -461.699 1128.91 60849
0.1395 0.139505 10851.2 286.773 2897.36 -458.926 0.65915 1121.16 61579
0.1405 0.140502 10622.8 206.786 3170.65 -100.59 352.257 1113.62 62313
0.1415 0.141497 10535.1 51.3579 3054.42 288.447 487.107 1107.33 62983
0.1425 0.142499 10555.1 -35.8454 2723.02 366.774 322.385 1091.02 64890
0.1435 0.143507 10552.9 105.648 2650.03 211.067 485.539 1085.55 65545
0.1445 0.144507 10461 112.609 2559.76 81.2845 575.835 1082.4 65883
0.1455 0.145505 10359.4 151.817 2458.23 100.765 661.133 1073.45 66937
0.1465 0.1465 10296.8 35.3259 2464.51 12.8774 296.752 1068.44 67536
0.1475 0.147503 10128.1 283.111 2560.35 -497.877 193.159 1051.59 69633
0.1485 0.148507 9895.78 203.925 2609.67 -216.592 441.506 1050.54 69655
0.1495 0.149502 9918.48 -101.979 2463.3 329.231 297.341 1046.12 70257
0.1505 0.1505 9968.29 44.056 2149.79 447.271 280.826 1034.29 71899
0.1515 0.151504 9903 80.8867 1912.48 213.348 582.046 1025.36 73122
0.1525 0.152501 9893.03 49.7516 1978.46 -34.578 492.67 1028.15 72721
0.1535 0.1535 9790.91 271.245 2068.16 -136.768 411.681 1010.16 75279
0.1545 0.154507 9556.91 109.545 2203.35 -296.678 258.249 1003.89 76093
0.1555 0.155505 9484.24 180.369 2524.58 -119.553 159.356 1005.92 75747
0.1565 0.156502 9291.66 232.997 2469.34 228.884 210.61 990.758 77974
0.1575 0.157498 9193.67 51.6362 2496.45 0.69913 79.3678 994.13 77391
0.1585 0.158494 9098.32 224.997 2555.43 -91.9381 110.66 977.564 79981
0.1595 0.159502 8873.33 135.595 2508.35 54.4411 231.716 968.045 81429
0.1605 0.160503 8759.24 25.4002 2392.66 174.056 381.691 970.618 80931
0.1615 0.161504 8808.46 76.2096 2235.05 230.455 233.032 956.256 83410
0.1625 0.162506 8711.22 59.6726 2031.82 223.739 477.666 957.821 83079
0.1635 0.163503 8771.62 43.7718 1846.86 268.381 725.695 949.24 84625
0.1645 0.164504 8724.88 29.5071 1617.21 205.602 758.819 942.146 85875
0.1655 0.165507 8674.94 136.943 1601.99 -31.9254 823.31 935.409 87085
0.1665 0.166502 8579.71 151.286 1749.1 2.96771 773.608 937.679 86604
0.1675 0.167497 8443.55 178.348 1855.94 -148.642 631.962 924.551 88993
0.1685 0.168503 8340.53 125.881 2017.27 -100.254 733.795 914.475 90897
0.1695 0.169507 8315.38 48.9565 1999.31 -34.8648 737.835 915.611 90655
0.1705 0.170504 8368.83 -19.8481 2041.73 33.2103 429.256 909.837 91845
0.1715 0.171503 8323.74 175.274 2096.63 -310.411 187.038 902.373 93340
0.1725 0.172501 8179.7 269.142 2285.81 -532.009 197.439 900.836 93561
0.1735 0.173502 7994.4 106.663 2366.51 -23.6846 239.282 888.652 96015
0.1745 0.174499 8016.28 -2.43387 2412.28 248.598 13.5429 893.377 95017
0.1755 0.175493 8047.85 -0.724295 2212.16 296.585 9.3387 880.527 97833
0.1765 0.176493 7983.85 154.465 2137.92 -71.3415 53.4479 877.07 98560
0.1775 0.177494 7925.04 160.632 2096.94 -107.079 83.2911 870.89 99921
0.1785 0.178499 7754.67 108.193 2250.99 -26.5692 75.7642 862.93 101647
0.1795 0.179504 7743.71 113.818 2266.31 175.392 215.501 860.301 102261
0.1805 0.180504 7685.96 -15.7077 2083.11 365.899 381.371 857.467 102895
0.1815 0.181499 7787.59 -31.8128 1949.08 402.536 432.028 854.11 103782
0.1825 0.182502 7805.99 64.7978 1786.49 133.406 564.603 843.978 106303
0.1835 0.183504 7769.04 113.747 1782.6 -184.35 458.943 844.524 106137
0.1845 0.1845 7682.18 181.06 1907.83 -242.334 521.858 839.103 107445
0.1855 0.185498 7582.93 87.4121 1991.36 -60.3204 546.41 832.418 109099
0.1865 0.186499 7596.16 15.1757 1879.38 104.113 203.023 828.597 110118
0.1875 0.187501 7549 103.105 1764.96 86.9943 484.38 822.91 111607
0.1885 0.188501 7538.45 17.855 1554.91 261.012 739.941 820.668 112209
0.1895 0.1895 7512.31 85.5997 1576.93 113.372 608.087 814.78 113815
0.1905 0.190498 7411.88 187.69 1502.32 -25.9114 750.105 812.177 114462
0.1915 0.191496 7288.54 86.1905 1462.15 -174.136 821.154 806.229 116053
0.1925 0.192499 7302.03 137.134 1653.36 -127.877 569.831 799.43 118047
0.1935 0.193502 7087.51 183.037 1723.32 -110.799 830.583 797.274 118501
0.1945 0.1945 7029.33 35.6807 1633.96 150.214 774.113 793.689 119523
0.1955 0.1955 7157.5 -53.7563 1585.06 372.232 626.092 788.632 121174
0.1965 0.196501 7143.96 131.75 1480.89 19.3796 531.542 784.317 122499
0.1975 0.197504 7053.33 109.6 1463.58 -42.9357 836.675 780.037 123765
0.1985 0.198505 6972.35 89.0341 1426.98 75.2002 752.65 776.844 124711
0.1995 0.199503 6940.76 68.8911 1304.75 149.086 729.33 773.48 125769
0.2005 0.2005 6908.67 79.8088 1332.47 72.7183 681.252 770.452 126730
0.2015 0.201501 6841.81 138.969 1291.24 -88.4125 727.985 762.032 129483
0.2025 0.202503 6746.64 101.276 1278.14 -236.246 661.079 761.985 129409
0.2035 0.203499 6663.53 136.427 1374.39 -66.847 677.842 758.834 130407
0.2045 0.204499 6577.09 105.765 1321.78 44.4671 741.889 750.495 133237
0.2055 0.2055 6501.6 136.229 1452.56 -51.7141 554.691 750.155 133284
0.2065 0.206502 6403.8 136.353 1483.33 -84.0056 683.411 742.96 135781
0.2075 0.207504 6398.17 -7.45173 1442.51 138.915 708.822 741.973 136137
0.2085 0.208502 6476.79 -9.49905 1315.74 212.872 737.431 739.168 137251
0.2095 0.209503 6503.21 18.8806 1172.54 81.7228 829.696 732.634 139737
0.2105 0.210503 6513.74 170.054 1186.5 -93.3663 708.26 733.158 139548
0.2115 0.211505 6348.22 174.299 1321.41 -249.8 723.745 724.413 142765
0.2125 0.212505 6272.52 115.38 1514.83 -65.2516 646.847 726.255 141963
0.2135 0.2135 6227.23 61.6035 1444.32 34.0767 422.066 721.64 143737
0.2145 0.214498 6174.91 86.2543 1466.72 -1.7824 498.458 716.461 145767
0.2155 0.215497 6185.15 86.2016 1391.74 177.073 552.477 713.656 146926
0.2165 0.2165 6130.66 47.1673 1238.85 179.798 522.978 708.157 149157
0.2175 0.217503 6159.73 60.7812 1248.78 43.6169 490.328 706.393 149935
0.2185 0.218504 6076.56 110.814 1137.42 -46.9573 569.271 702.751 151401
0.2195 0.219502 6052.12 62.07 1104.04 -12.7155 494.045 702.053 151675
0.2205 0.220496 6031.22 89.3718 1193.59 -17.3653 499.476 698.638 153138
0.2215 0.221496 5993.26 61.963 1082.75 75.1296 455.347 691.911 156087
0.2225 0.222501 5987.16 82.7057 1030.39 22.153 376.246 689.071 157369
0.2235 0.223502 5930.86 106.284 1126.03 -91.5037 423.632 687.759 157905
0.2245 0.224503 5828.21 122.724 1044.21 -19.0324 376.339 682.927 160027
0.2255 0.225501 5812.18 79.6948 1092.45 65.2983 392.885 682.199 160350
0.2265 0.2265 5761.33 114.145 1113.36 -60.7266 419.639 677.122 162703
0.2275 0.227501 5671.89 96.161 1051.33 -59.946 530.576 674.809 163713
0.2285 0.228501 5682.74 17.5622 1051.99 119.589 474.691 671.16 165511
0.2295 0.229501 5689.16 59.699 1004.56 23.474 371.429 668.512 166833
0.2305 0.230499 5668.83 189.652 1154.75 -208.188 338.167 667.369 167380
0.2315 0.231497 5499.46 136.498 1201.73 -108.952 336.103 662.519 169629
0.2325 0.232499 5460.06 59.6992 1316.01 3.19118 295.578 658.261 171781
0.2335 0.233501 5488.14 8.12866 1217.88 212.288 320.223 655.742 173139
0.2345 0.234502 5581.28 -13.4343 1022.18 227.524 386.54 654.549 173889
0.2355 0.2355 5643.97 41.5865 880.037 140.479 462.078 652.529 175048
0.2365 0.236498 5578.75 140.518 821.122 27.2449 567.245 648.947 176901
0.2375 0.2375 5505.52 84.0201 849.403 10.0286 612.958 644.01 179527
0.2385 0.238502 5476.38 91.0023 896.314 -49.2833 492.593 643.616 179709
0.2395 0.2395 5446.01 99.3832 923.336 -113.578 449.857 640.153 181618
0.2405 0.240502 5406.32 80.6062 943.039 -52.6445 426.823 636.445 183687
0.2415 0.241503 5425.59 44.1961 921.954 78.3917 389.736 634.836 184645
0.2425 0.242502 5437.37 66.4763 956.494 41.4413 377.974 633.298 185559
0.2435 0.243502 5392.84 105.34 941.263 -48.9072 426.812 628.141 188557
0.2445 0.244503 5315.3 124.28 1003.92 -131.349 457.404 626.967 189156
0.2455 0.245504 5263.46 112.352 1076.38 -3.49688 515.206 624.101 190825
0.2465 0.246504 5237.34 61.3251 1108.05 -23.4876 455.006 621.115 192627
0.2475 0.247504 5210.88 111.489 1047.95 -24.6144 548.712 619.676 193485
0.2485 0.248502 5217.61 19.9745 1011.44 106.981 515.305 616.975 195193
0.2495 0.249501 5221.26 89.2435 1020.67 0.155781 445.511 613.599 197352
0.2505 0.250501 5111.37 124.659 946.806 -0.418849 564.557 611.475 198565
0.2515 0.251503 5115.65 16.4211 907.269 159.247 581.083 607.874 200931
0.2525 0.252505 5183.73 47.1495 805.586 133.273 381.335 606.383 202021
0.2535 0.253503 5134.48 95.6038 758.941 -91.4985 479.87 605.498 202539
0.2545 0.2545 5088.27 98.2415 667.845 22.9788 546.149 601.53 205150
0.2555 0.255502 5079.44 29.5974 577.258 181.503 558.723 598.717 207069
0.2565 0.256505 5087.99 80.4965 533.535 149.182 420.472 595.811 209107
0.2575 0.257505 5009.46 141.23 486.786 -157.866 448.237 595.414 209265
0.2585 0.2585 4883.62 155.241 605.681 -163.526 498.758 593.601 210351
0.2595 0.259497 4857.2 75.0957 627.838 2.18511 389.789 589.412 213310
0.2605 0.2605 4846.97 42.792 594.449 34.344 168.15 585.932 215835
0.2615 0.261505 4849.56 110.838 639.475 -104.116 166.661 583.577 217585
0.2625 0.262502 4781.56 98.2324 610.524 -92.9788 230.597 585.906 215751
0.2635 0.263497 4772.1 80.127 628.663 13.3195 140.088 579.714 220369
0.2645 0.264502 4717.5 95.4811 655.495 -23.3059 251.433 576.181 222990
0.2655 0.265502 4696.6 111.1 607.382 25.3575 296.102 577.583 221875
0.2665 0.266499 4642.7 52.9277 602.636 37.0879 449.91 573.846 224685
0.2675 0.267501 4646.53 63.567 562.537 44.7759 411.902 570.199 227575
0.2685 0.268502 4679.23 54.974 573.784 -2.4149 417.616 569.5 228189
0.2695 0.269502 4670.64 103.357 592.848 -25.7982 383.935 567.521 229768
0.2705 0.270502 4608.57 138.914 597.135 -84.4608 429.303 564.606 232041
0.2715 0.271501 4560.42 52.1831 675.617 -40.3657 383.433 564.331 232185
0.2725 0.2725 4499.22 131.454 653.776 -63.1672 339.27 559.299 236275
0.2735 0.273502 4454.11 64.4968 671.114 25.9361 447.189 558.906 236529
0.2745 0.274501 4491.3 28.3207 583.52 124.295 362.699 556.412 238720
0.2755 0.275501 4520.86 72.7934 537.114 31.1812 245.614 555.059 239937
0.2765 0.276499 4482.1 98.9124 453.016 -88.0974 322.937 553.256 241435
0.2775 0.277497 4422.63 124.951 499.526 -26.7691 368.184 550.851 243441
0.2785 0.278499 4405.34 20.1692 501.735 128.064 323.811 547.175 246691
0.2795 0.279499 4403.51 103.189 421.595 87.668 294.924 547.506 246390
0.2805 0.280499 4383.01 60.155 371.86 34.4228 357.582 543.201 250273
0.2815 0.281503 4384.41 49.8505 355.272 21.1076 408.092 541.943 251439
0.2825 0.282503 4414.59 75.9743 312.012 32.1399 407.264 541.179 252205
0.2835 0.2835 4398 78.3323 266.697 -31.1683 417.621 539.555 253695
0.2845 0.2845 4383.99 117.235 354.688 -96.3803 352.126 535.799 257238
0.2855 0.285502 4312.82 61.034 339.107 38.228 414.498 535.158 257719
0.2865 0.2865 4378.16 40.1895 322.202 53.4073 389.842 533.833 259125
0.2875 0.287498 4408.36 36.0224 273.353 46.0597 344.85 531.323 261637
0.2885 0.288501 4408.99 116.968 246.39 -60.3308 313.369 527.707 265236
0.2895 0.289501 4329.21 130.339 295.171 -99.3542 383.252 529.158 263629
0.2905 0.290499 4304.89 69.7965 312.254 -34.0015 308.244 524.696 268083
0.2915 0.291503 4275.97 74.4873 314.368 70.6555 292.195 522.576 270205
0.2925 0.292502 4253.99 70.6235 209.657 20.0594 390.644 523.58 269127
0.2935 0.293498 4244.71 86.6372 191.203 54.4989 388.513 520.477 272326
0.2945 0.294499 4236.06 97.9745 160.015 -36.9658 376.524 517.489 275463
0.2955 0.295501 4178.08 105.739 212.472 -78.2267 368.804 515.981 276957
0.2965 0.296503 4140.26 73.4579 234.253 -50.8643 343.92 514.016 279001
0.2975 0.297503 4128.96 105.899 292.762 -36.7809 261.824 513.584 279447
0.2985 0.2985 4124.52 81.7872 238.129 -0.22224 349.635 511.683 281518
0.2995 0.299501 4148.43 22.6996 214.598 81.0512 286.228 508.269 285363
