### header ###
fiducial parameters:
Omega_m = 0.31
Omega_nu = 0
Omega_de = 0.69
Omega_k = 0
H_0 = 100
w_de = -1
zeff = 0
beta = 0
fgrowth = 0
b_1 = 2
gamma = 0.55
Lx = 3500 Ly = 3500 Lz = 3500
nx = 700 ny = 700 nz = 700
xoffset = 860.662 yoffset = 18.9864 zoffset = 261.444
bins = 400 dk = 0.001
kx_ny = 0.628319 ky_ny = 0.628319 kz_ny = 0.628319
############################
A(data) = 3.17318 (not used)
A(ran) = 3.17323 (used)
Ngal = 174823
weighted Ngal = 0
Nran = 8615817
weighted Nran = 0
SN(data) = 3299.82
SN(ran) = 63.4676
SN(data+ran) = 3363.29
############################
13 columns: k_central k_mean P_0(k) sigma^{lin}_{P_0(k)} P^img_1(k) sigma^{lin}_{P_1(k)} P_2(k) sigma^{lin}_{P_2(k)} P^img_3(k) sigma^{lin}_{P_3(k)} P_4(k) sigma^{lin}_{P_4(k)} N_modes
### header ###
0.0005 0 0 0 0 0 0 0 0 0 0 0 0
0.0015 0.0017952 20232 33490.8 -45048.4 43399.1 -56053.4 70917.4 36098.8 68535.4 88404.1 93015.7 3
0.0025 0.00253879 39495.2 22808 -55067.4 44810.9 -48962.8 57280.9 -38952.9 69883.6 -53768.2 73745.4 6
0.0035 0.00331552 77773.5 26059.7 -63385.9 37634.7 -87955.6 51952.9 -4444.44 63772.9 -33198.8 70487.9 7
0.0045 0.00420575 115020 27255.2 -59237.2 38863.5 -91822.4 55660.5 -40754.6 66104.9 -18154.3 73442.2 24
0.0055 0.00557378 134583 25333.5 -5086.4 32755.9 -100681 50821.6 -81621.9 59550.3 10360.4 66402.1 45
0.0065 0.00659388 129506 20191.2 15001.3 28649 -68980.1 38544.9 -77925.8 47782.7 -21114.6 53481.4 40
0.0075 0.00754703 99229.7 13964.8 19635.4 16358.5 -84429.6 27824.3 -54799.4 31579.3 29045.8 35763.4 57
0.0085 0.00846663 82450 10078.7 13053.1 13520.3 -60646.3 18161.2 -46662.2 23268.5 -26433.7 26109 75
0.0095 0.00948925 77374.2 8372.43 4817.14 10975.3 -57516.4 15571.7 -36834 19268.5 -14892.4 21644.9 112
0.0105 0.0105443 67066.6 6534.98 2353.52 9696.52 -35734.9 11825.7 -41564.3 15531.6 -32765.6 17444.7 105
0.0115 0.0114567 68664.7 5970.79 1902.14 9011.84 -28260.3 11394.9 -37600.8 14327.7 -19906.8 16083.7 144
0.0125 0.0124909 69236.2 5404.94 -3159.69 8624.48 -17236.8 10369.8 -15198.2 12987.1 -23657.6 14759 169
0.0135 0.0133993 71461.2 5128.11 -6455.07 8955.27 -130.317 10714.9 -16358.2 12999.7 -18903.1 14644.3 180
0.0145 0.0144887 79576.5 5275.1 -3418.67 8916.28 -4982.71 11236.3 2587.07 13359.4 -7600.24 14967.8 267
0.0155 0.0155005 72400.7 4523.03 4017.13 8353.64 12571.1 9790.75 4989.53 11762.5 -20459.6 13252 238
0.0165 0.0165335 78843.8 4592.62 3662.51 7886.47 -1196.06 10683.1 194.948 12208.4 15535.6 13443.8 315
0.0175 0.0174787 73116 4078.84 940.05 8153.59 29518.8 10398 12379.6 11863.1 8081.13 12878 297
0.0185 0.0184418 74690 3886.95 830.886 7045.57 8833.64 9467.26 4503.08 10753.1 17892.8 11739.1 388
0.0195 0.0194759 75685.4 3765.26 1314.78 7366.72 25354.6 9495.53 2855.56 10822.8 10874.7 11765.2 399
0.0205 0.0204543 73843.1 3537.75 7216.73 7202.42 33215.9 9489.33 -3673.89 10682.8 21874.8 11460 462
0.0215 0.0215477 67081.5 3123.58 9279.3 6666.85 39992.9 8915.72 2716.31 9949.59 29233.4 10537.6 571
0.0225 0.0225534 58938.6 2716.15 8867.39 6181.63 50621.4 8230.42 3937.79 9151.44 28739.8 9587.33 510
0.0235 0.0234893 55164.6 2443.52 5666.58 5566.09 46401.4 7546.9 12518.9 8371.95 34049.3 8719.96 555
0.0245 0.0243964 50824.2 2195.67 1820.14 5105.32 51894.2 6581.19 14215.6 7345.81 13406.9 7744.05 592
0.0255 0.025473 53788.3 2185.12 -2847.41 4982.62 48161.2 6519.63 4613.26 7269.99 19757.8 7653.95 837
0.0265 0.026529 55745.1 2162.28 -4025.88 4853.8 47891.4 6129.64 -7895.16 6887.37 6646.54 7362.17 723
0.0275 0.0274997 61496 2254.55 -5099.24 4912.73 44532.5 6198.51 -3253.56 6994.92 6730.04 7514.85 826
0.0285 0.0284809 65720.8 2321.38 -3562.95 4967.55 45170.1 5979.59 -10303 6849.99 -9825.76 7507.66 831
0.0295 0.029469 69721.7 2370.61 1295.49 5042.96 46619.3 6040.91 -3736.46 6935.23 -11637.2 7623.3 996
0.0305 0.0305325 67154.6 2207.68 5058.13 4613.77 41491.2 5336.23 -960.315 6215.46 -22081.3 6942.72 1041
0.0315 0.0315051 62174.9 1994.85 6659.65 4192.7 40190.9 4791.33 7995.14 5593.15 -24726.3 6276.03 1036
0.0325 0.0324619 56117.5 1727.23 6603.56 3596.76 33356 4187.94 2234.23 4873.26 -16762.7 5430.21 1059
0.0335 0.0334508 54060 1631.24 3833.22 3420.3 34523.9 3898.98 10854.9 4561.23 -22188.9 5122.06 1302
0.0345 0.034512 47507.9 1375.77 2191.03 2849.36 27259.4 3309.38 9105.71 3863.53 -14898.4 4308.74 1339
0.0355 0.0355335 46599.7 1297.01 1840.94 2622.1 22309.4 3046.93 6017.1 3579.05 -14018.8 4001.34 1365
0.0365 0.0364712 46037.5 1237.8 787.849 2490.18 20462 3014.66 8497.58 3496.86 -5714.02 3853.91 1308
0.0375 0.0374489 43080.1 1125.1 916.217 2251.37 18450.6 2710.43 5424.73 3152.21 -6374.85 3484.55 1579
0.0385 0.0384753 43439.8 1100.63 1125.67 2186.55 17179.8 2693.33 5662.23 3112.01 -2230.58 3418.15 1662
0.0395 0.0395024 40126.4 990.373 25.9747 1970.63 16120.4 2431.31 2691.51 2805.73 -1638.72 3080.21 1683
0.0405 0.0405035 41833.2 1002.01 640.662 1957.52 14087.9 2464.96 2845.19 2833.99 1547.57 3101.44 1822
0.0415 0.0415245 40463.3 944.484 282.247 1831.89 12787.5 2298.82 1716.19 2649.75 694.036 2906.37 1887
0.0425 0.0425015 40672 927.642 552.219 1805.83 13270.7 2272.39 2193.36 2614.84 1284.4 2863.99 1920
0.0435 0.0434921 39547.6 878.308 -272.77 1673.51 10364.4 2112.05 3141.14 2438.07 1083.37 2677.62 2005
0.0445 0.0444852 39632.1 858.165 491.648 1603.18 8108.92 2028.63 2764.36 2348.53 815.619 2586.22 2151
0.0455 0.0454803 38119.6 807.255 334.126 1499.41 7121.47 1917.54 4658.12 2213.61 2202.35 2432.81 2274
0.0465 0.0464867 38312 791.499 462.262 1431.46 4423.03 1841.19 559.052 2130.84 2106.59 2350.35 2311
0.0475 0.0474925 38121.4 770.867 -889.449 1382.11 3539.46 1761.43 1891.95 2051.01 386.309 2270.46 2568
0.0485 0.0485184 38333.2 758.741 802.3 1343.81 2330.66 1727.4 -1594.7 2009.04 1150.81 2224.24 2493
0.0495 0.0494948 37829.7 733.781 813.296 1296.58 2059.73 1653.48 -2308.38 1931.43 -111.012 2142.92 2644
0.0505 0.0505063 37013.6 704.835 1350.76 1282.34 4902.15 1613.34 -1968.41 1883.19 -924.369 2086.12 2829
0.0515 0.0514906 36077.5 674.769 1803.9 1240.08 5795.79 1565.21 -4323.63 1821.08 -64.2815 2011.65 2784
0.0525 0.052493 34032.6 625.879 1656.72 1179.1 7899.17 1452.99 -407.687 1697.34 -2664.36 1880.2 3055
0.0535 0.0534895 33270.8 599.735 993.255 1126.18 7352.69 1404.25 993.32 1633.58 -1142.53 1804.61 3009
0.0545 0.0544861 31909.4 564.227 807.735 1050.32 6176.58 1328.18 3347.85 1539.5 423.351 1696.36 3336
0.0555 0.0555087 31888.9 553.067 39.6324 1012.3 4675.3 1298.22 4331.41 1501.6 1736.69 1653.19 3349
0.0565 0.0564767 31266.6 531.871 -109.906 947.076 2309.05 1232.74 4022.71 1424.73 2621.75 1570.76 3324
0.0575 0.0574797 30922.7 516.341 123.489 911.719 1632.82 1189.69 2172.66 1375.27 2601.46 1518.16 3639
0.0585 0.0584928 31194.9 511.796 437.735 900.962 1421.59 1174.64 -611.471 1359.07 2424.91 1501.55 3846
0.0595 0.0595102 30529.9 494.295 741.095 904.233 4372.87 1205.53 -2728.27 1371.8 6683.29 1497.33 3787
0.0605 0.0604947 30472 485.168 837.046 891.29 4780.66 1156.77 -4313.56 1330.42 3338.01 1459.5 3930
0.0615 0.0614831 29187.7 461.265 968.782 904.474 9898.61 1180.07 -3232.35 1339.49 5960.32 1450.45 4083
0.0625 0.062491 30186.7 472.054 628.64 951.905 12854.6 1236.64 -1938.03 1399.77 6375.84 1509.98 4303
0.0635 0.063506 28856.4 445.201 669.993 906.719 13215.7 1175.92 206.095 1329.78 6108.64 1432.71 4470
0.0645 0.0645175 29504.2 450.088 663.333 929.444 14828.9 1208.08 625.052 1362.84 6967.97 1463.7 4479
0.0655 0.0655028 28079.2 420.854 882.166 862.982 13545.9 1112.9 1552.98 1259.55 5289.93 1357.51 4636
0.0665 0.0664888 28007.7 416.487 999.815 871.655 15300.6 1136.07 1780.78 1278.66 7360.87 1368.79 4653
0.0675 0.0674966 26490 384.9 870.774 786.651 12431.7 1019.6 814.458 1152.69 5605.2 1241.32 5220
0.0685 0.0685273 26445.2 380.082 431.543 786.308 13470.5 1020.77 997.201 1151.7 6114.4 1236.95 5029
0.0695 0.0694932 25191.3 354.129 221.338 714.819 11034.2 907.628 343.786 1034.52 2520.87 1123.24 5040
0.0705 0.0704803 26144.1 363.576 258.953 742.819 12512.1 942.746 -322.737 1072.63 2788.2 1162.37 5475
0.0715 0.0714879 25440.8 347.419 156.208 697.316 10888.8 866.541 -780.224 995.709 -93.3115 1089.25 5509
0.0725 0.0724982 25348.2 342.216 206.135 693.031 11613.7 861.016 -461.036 987.752 -0.860839 1079.11 5916
0.0735 0.0735127 25191.1 335.522 361.026 675.093 11219.8 819.574 99.3046 948.738 -2699.38 1045.38 5721
0.0745 0.0744914 24940.7 327.744 731.855 659.886 11135.6 802.997 452.414 928.67 -2413.48 1022.36 6028
0.0755 0.0754916 24321.2 315.25 997.588 636.184 10920.9 783.794 542.145 902.255 -985.561 988.916 6183
0.0765 0.0764884 23240.7 297.925 932.949 604.828 10937.6 743.026 1071.52 855.144 -1202.07 937.289 6330
0.0775 0.0774996 23404.3 296.793 302.154 609.946 11786.3 766.001 1341.66 873.561 1365.97 948.783 6583
0.0785 0.0784865 22259.8 276.591 294.819 551.306 9006.03 684.4 2420.89 787.997 -304.462 863.055 6549
0.0795 0.0794732 22457.9 275.705 120.362 553.219 9457.16 697.698 1741.14 797.917 1423.82 868.876 6828
0.0805 0.0804811 21813 263.451 317.705 517.564 7872.6 636.594 1307.48 737.372 -1334.38 811.903 7147
0.0815 0.0814996 21110 251.216 703.717 488.833 6938.91 605.739 487.801 701.032 -732.791 771.37 7386
0.0825 0.0825061 20480.6 240.606 633.83 462.323 6024.43 560.499 568.179 656.099 -2709.3 728.06 7227
0.0835 0.0835016 19416.6 225.25 748.764 431.553 5533.32 523.934 112.635 613.366 -2480.73 680.652 7798
0.0845 0.0844961 19194.7 219.798 699.03 420.511 5351.73 516.494 -92.7945 602.021 -1564.36 665.915 7371
0.0855 0.0854894 18752.7 212.633 238.913 405.834 5177.87 484.557 370.805 571.762 -3666.74 638.025 8256
0.0865 0.086507 18672.8 209.05 220.081 402.353 5553.7 494.184 -473.222 575.251 -1454.84 635.712 8037
0.0875 0.0874906 18645.3 206.26 3.50137 394.38 5194.64 480.501 606.868 561.997 -2137.72 623.161 8155
0.0885 0.0884921 19016.9 207.994 -48.0279 401.712 5757.42 505.475 910.331 582.539 490.149 638.905 8718
0.0895 0.089499 18851.3 203.722 145.65 390.691 5347.82 486.145 861.191 563.47 -507.446 620.679 8571
0.0905 0.0904919 18359.6 196.235 78.1195 378.024 5377.01 480.269 610.151 551.736 1197.14 603.793 8932
0.0915 0.0915083 18444.5 194.988 356.66 375.425 5388.99 474.609 533.589 546.298 796.296 598.717 9285
0.0925 0.0925082 17847.1 187.081 451.791 365.213 5939.86 463.373 207.403 531.29 1258.82 580.312 9204
0.0935 0.0935033 17497 180.824 598.655 345.73 4697.77 443.77 212.135 508.513 1803.58 555.709 9349
0.0945 0.0944804 17013.7 174.747 433.398 342.752 5866.93 437.966 779.643 500.512 1800.79 545.143 9564
0.0955 0.0954927 16402.2 166.286 555.438 321.661 4940.01 414.693 352.542 473.484 2192.66 515.751 10155
0.0965 0.0964943 16219.2 163.164 546.044 320.076 5584.46 409.688 966.378 467.92 1837.29 509.379 9913
0.0975 0.0974914 15451 153.445 307.824 297.136 4701.3 383.683 106.998 437.749 2196.13 476.537 10476
0.0985 0.0985024 15398.1 151.178 77.6703 290.891 4438.4 371.689 308.101 426.167 1373.79 465.755 10575
0.0995 0.0995033 15571.9 151.515 -158.024 293.447 4776.74 376.042 -33.9369 430.204 1682.72 469.263 10882
0.1005 0.100512 15668.9 150.433 -186.507 284.998 3830.52 362.064 80.7864 417.247 791.245 457.951 10875
0.1015 0.101503 15737.1 149.68 -41.4709 284.361 3999.08 357.748 240.609 413.639 188.82 454.966 11118
0.1025 0.102508 15924.7 149.93 217.421 284.098 3887.83 363.044 -733.861 417.434 1205.08 457.407 11575
0.1035 0.103498 15641.5 145.567 301.643 271.143 3091.41 340.462 5.4755 395.599 -194.378 436.788 11364
0.1045 0.104501 15584.1 144.183 334.45 276.835 4417.23 351.375 -264.419 404.047 912.588 442.544 12093
0.1055 0.10551 14931.3 136.678 492.304 259.646 3804.82 324.784 -250.609 376.392 -172.739 414.652 12067
0.1065 0.106497 14762.4 134.637 369.295 265.033 5290.8 336.027 436.864 384.816 1088.98 419.8 12054
0.1075 0.107499 14222.5 128.193 519.599 248.267 4461.39 308.439 20.4381 356.959 -375.45 392.776 12807
0.1085 0.108501 14123.2 126.307 443.566 246.916 4819.44 308.512 32.3463 355.614 60.6168 390.051 12736
0.1095 0.109503 13598.7 121.029 519.101 240.642 5417.43 297.547 -3.2165 343.111 -423.208 376.501 12933
0.1105 0.110502 13208.4 115.989 381.639 226.641 4498.97 282.554 -189.673 325.99 -71.2796 357.815 13428
0.1115 0.111509 12981.1 113.41 300.222 225.599 5160.54 280.971 136.968 323.15 14.7635 353.781 13453
0.1125 0.1125 12788.8 110.414 59.7885 216.555 4528.77 268.202 192.479 309.95 -406.893 340.676 13668
0.1135 0.113491 12816.3 109.818 -115.569 216.798 4784.9 270.027 666.784 311.04 -39.8666 340.913 13791
0.1145 0.114486 12934.6 109.625 -79.0139 214.209 4412.43 266.653 585.76 307.832 -157.004 338.019 14205
0.1155 0.115493 12678 106.274 45.9049 205.048 3814.12 256.465 916.343 296.327 -13.6226 325.585 14776
0.1165 0.116498 12826.8 106.177 56.7128 199.599 2865.62 251.035 814.829 290.961 19.2662 320.592 14553
0.1175 0.117473 12641.7 103.743 92.7605 195.052 2816.17 247.125 836.466 285.57 400.907 314.029 14568
0.1185 0.118491 12475.7 101.431 150.747 189.631 2577.56 240.912 474.471 278.371 474.767 306.215 16015
0.1195 0.119503 12368.1 99.7562 198.091 187.355 2706.09 239.55 29.6579 275.82 857.867 302.677 15270
0.1205 0.120507 12279.2 98.2813 165.07 185.419 2826.97 239.133 -203.385 274.177 1359.17 299.968 15999
0.1215 0.1215 12254 97.4193 203.595 185.79 3201.95 238.999 -416.571 273.776 1354.7 299.14 15670
0.1225 0.122507 12170.9 96.3356 129.625 187.924 3968.57 242.692 -334.193 276.559 1826.79 300.648 16887
0.1235 0.123522 11974.4 94.0248 275.602 183.53 3931.35 236.674 -244.733 269.81 1726.19 293.394 16407
0.1245 0.124498 11892.2 92.8635 180.379 183.525 4337.03 237.236 194.481 269.704 1984.88 292.435 16306
0.1255 0.125499 11703.3 90.6836 124.535 179.524 4346.95 231.043 192.505 262.985 1729.21 285.407 17523
0.1265 0.126501 11755.6 89.9813 82.3213 174.291 3603.27 223.756 439.886 255.819 1365.15 278.895 17154
0.1275 0.127506 11496.3 87.3434 -120.39 169.519 3590.56 217.9 478.529 248.935 1424.18 271.199 18007
0.1285 0.128503 11526.7 86.6894 -13.5495 166.089 3178.15 212.282 140.819 243.556 998.138 266.363 17496
0.1295 0.129499 11734.7 87.5904 -108.127 167.942 3255.54 215.207 377.3 246.646 1157.96 269.515 18405
0.1305 0.13049 11646.5 86.1628 65.496 163.946 2991.77 208.367 -160.379 239.886 654.193 263.06 18100
0.1315 0.131488 11745.3 86.3641 140.688 165.869 3297.28 214.039 -142.992 244.593 1539.86 266.707 19059
0.1325 0.132493 11615 84.829 241.415 163.774 3451.68 210.128 -111.346 240.417 1285.85 262.305 18957
0.1335 0.133491 11481.7 83.411 230.049 162.984 3814.07 209.559 -63.6892 239.102 1509.51 260.163 19468
0.1345 0.134507 11396 82.2135 259.514 161.047 3874.91 206.626 287.513 235.839 1409.44 256.645 19953
0.1355 0.13551 10983.2 78.6822 307.999 154.442 3809.17 197.767 70.0885 225.802 1283.35 245.769 19956
0.1365 0.136499 10863.3 77.1231 312.165 150.057 3485.68 191.655 255.463 219.352 1054.59 239.288 19723
0.1375 0.137496 10412.3 73.3341 236.582 142.166 3249.07 180.218 169.048 206.96 633.54 226.383 20946
0.1385 0.138511 10196.2 71.1527 283.093 136.277 2809.5 173.206 180.472 199.157 630.625 218.147 20955
0.1395 0.139498 9855.79 68.2605 188.786 130.174 2621.52 162.826 185.307 188.548 -90.7172 207.585 20506
0.1405 0.140483 9742.15 67.0048 150.524 128.212 2663.13 162.611 251.88 187.162 506.081 205.157 21447
0.1415 0.141484 9701.37 66.1647 32.2782 125.315 2380.69 157.467 63.7642 182.268 43.6284 200.648 21771
0.1425 0.142494 9611.52 65.0333 8.6778 122.348 2167.39 154.327 222.994 178.609 140.004 196.637 22470
0.1435 0.143509 9788.05 65.7943 45.1576 124.349 2324.28 158.085 117.563 182.214 501.251 200.035 22519
0.1445 0.144499 9704.36 64.7984 85.4916 122.683 2357.33 155.518 184.706 179.4 394.096 197.035 22218
0.1455 0.145505 9592.45 63.7286 190.246 122.19 2653.7 156.957 163.891 179.719 1045.85 196.261 23559
0.1465 0.146507 9445.47 62.2939 213.144 119.081 2552.11 151.365 -23.4547 174.099 574.982 190.759 23044
0.1475 0.147505 9388.11 61.6103 228.872 119.068 2812.52 153.177 -191.87 175.058 1161.57 190.824 23649
0.1485 0.148499 9084.92 59.1736 177.25 113.884 2644.05 144.061 13.6424 165.792 416.458 181.684 23640
0.1495 0.149495 9027.06 58.4447 120.293 113.008 2734.27 144.275 -144.671 165.33 813.219 180.574 24457
0.1505 0.1505 8942.87 57.5394 51.6179 111.41 2779.27 139.959 -69.2975 161.305 186.221 176.929 24591
0.1515 0.151499 8924.68 56.9319 1.74606 108.843 2441.22 136.238 -21.2834 157.634 -37.9786 173.446 25020
0.1525 0.152505 8906.61 56.377 -17.2388 106.559 2147.61 132.352 302.814 153.994 -397.803 170.118 25297
0.1535 0.153501 9069.59 57.0256 -31.479 107.916 2211.78 134.819 98.5366 156.446 -181.306 172.519 25452
0.1545 0.154504 8879.91 55.3998 90.7416 103.464 1829.92 128.613 234.15 149.993 -449.747 165.982 26061
0.1555 0.155499 9021.67 56.0251 102.617 106.28 2269.86 132.127 129.877 153.547 -345.018 169.485 26128
0.1565 0.156495 8632.23 53.1193 173.385 98.3908 1573.58 122.596 145.237 143.1 -413.836 158.465 26331
0.1575 0.157497 8672.66 53.1015 200.107 99.756 1929.32 124.602 36.8105 144.83 -230.573 159.91 27345
0.1585 0.158499 8352.46 50.7629 162.863 94.5202 1643.98 118.457 -8.67325 137.763 -170.455 152.193 26980
0.1595 0.159497 8272.75 50.0362 195.71 94.2772 1912.25 117.771 -77.6646 136.796 -195.548 150.961 27777
0.1605 0.1605 8058.44 48.4433 210.563 91.3339 1878.62 113.961 -75.6144 132.416 -224.694 146.159 28224
0.1615 0.161505 8011.97 47.9068 203.921 91.0526 2048.79 114.179 50.5105 132.175 -10.074 145.501 28075
0.1625 0.162497 7726.08 45.9512 104.182 87.831 2109.01 109.901 -87.7035 127.184 -44.2031 139.959 28590
0.1635 0.163499 7940.4 47.0058 43.011 90.8655 2403.48 115.674 202.829 132.702 611.518 145.057 29163
0.1645 0.164491 7695.36 45.3037 12.2483 87.7779 2402.69 110.528 195.683 127.26 240.909 139.477 28996
0.1655 0.165505 7811.03 45.6464 48.6815 87.8266 2258.48 111.678 217.795 128.282 530.777 140.383 30777
0.1665 0.166507 7706.68 44.7383 33.9802 85.7098 2142.9 108.196 100.926 124.725 255.214 136.866 29211
0.1675 0.167499 7639.74 44.0269 142.575 83.5954 1907.46 106.74 228.786 122.716 562.9 134.453 30922
0.1685 0.168508 7529.98 43.1097 121.543 81.364 1770.81 102.26 41.4118 118.442 18.1276 130.455 30867
0.1695 0.169499 7349.16 41.8041 188.51 78.3658 1590.01 97.8589 12.497 113.811 -215.352 125.713 30852
0.1705 0.170492 7214.96 40.7958 211.848 76.2641 1506.91 94.8723 -61.3881 110.582 -336.195 122.328 31257
0.1715 0.171495 7003.25 39.3881 187.363 74.1103 1589.5 92.6464 -56.8438 107.613 -152.567 118.76 32608
0.1725 0.172509 6993.58 39.1083 40.4709 73.8619 1653.66 93.3019 59.803 107.832 167.04 118.594 32361
0.1735 0.173504 6957.05 38.6827 -63.4125 73.0332 1637.49 92.3684 307.477 106.716 200.151 117.328 32508
0.1745 0.174498 7161.21 39.6222 -66.4878 75.2282 1774.98 97.1573 351.303 111.218 882.576 121.492 32791
0.1755 0.175498 7164.14 39.3724 -29.8472 74.2336 1637.29 95.672 304.826 109.74 766.082 120.093 33633
0.1765 0.176501 7191.7 39.3552 59.0754 74.5194 1700.9 98.051 369.505 111.505 1456.22 121.304 33984
0.1775 0.177503 7015.44 38.1558 153.257 71.8218 1537.86 95.023 214.435 107.931 1544.89 117.398 34069
0.1785 0.178498 6898.49 37.3295 143.507 70.3183 1518.89 93.4466 363.75 105.958 1662.25 115.113 34536
0.1795 0.179504 6750.76 36.2777 89.2248 67.575 1283.9 89.9998 232.019 102.133 1599.81 111.142 35343
0.1805 0.180501 6693.89 35.7332 -24.1982 65.7327 1052.79 87.7117 342.836 99.6642 1534.83 108.664 34990
0.1815 0.181505 6702.78 35.572 -40.8565 64.7863 876.41 87.1542 245.655 98.864 1687.66 107.811 36243
0.1825 0.182502 6743.36 35.5322 -12.3735 64.0342 706.288 85.3102 -16.4495 97.3239 1317.55 106.568 35694
0.1835 0.183504 6773.29 35.5296 37.1034 64.5987 860.049 86.415 -79.5006 98.2704 1522.61 107.33 37087
0.1845 0.184506 6789.24 35.4089 63.254 64.7275 965.951 85.3137 -346.145 97.5244 1141.01 106.75 36651
0.1855 0.185507 6785.03 35.2373 111.365 64.9169 1097.88 86.2727 -272.336 98.1601 1449.87 107.093 37818
0.1865 0.18651 6714.67 34.6817 106.135 64.4517 1254.56 84.3025 -142.028 96.3798 1040.82 105.369 37267
0.1875 0.187501 6673.47 34.3062 93.3069 64.2692 1398.41 83.5231 -38.6433 95.5959 908.444 104.523 38334
0.1885 0.1885 6579.2 33.5983 92.704 62.1529 1151.3 80.8264 124.7 92.6954 821.15 101.567 38223
0.1895 0.189495 6543.16 33.2423 84.8535 61.7319 1224.07 79.1098 128.065 91.2048 442.226 100.225 39064
0.1905 0.1905 6434.68 32.4793 78.5462 59.4404 945.393 76.7178 22.7037 88.4394 526.207 97.2677 39609
0.1915 0.191498 6386.32 32.0658 71.9361 58.6955 944.499 75.2715 20.3015 87.0052 356.87 95.8357 39576
0.1925 0.192504 6355.3 31.7279 78.72 57.551 781.581 74.6228 65.6539 86.0084 576.493 94.64 40909
0.1935 0.193505 6258.77 31.091 64.9994 56.487 794.752 73.5676 109.499 84.6061 692.104 92.9738 40191
0.1945 0.194501 6284.11 31.0671 76.7647 56.3462 764.002 73.9988 356.807 84.8391 896.102 93.0742 41232
0.1955 0.195498 6095.14 29.9875 110.162 54.8325 874.47 71.7134 93.1115 82.2281 825.543 90.1681 40873
0.1965 0.196497 6122.77 29.9708 132.695 54.3793 747.997 72.0274 135.408 82.2717 1097.62 90.0855 42816
0.1975 0.197502 5951.37 29.0141 110.28 53.5628 1003.18 70.3656 -96.0221 80.3986 987.743 87.9157 41727
0.1985 0.19849 5930.45 28.7674 116.89 52.9355 948.507 69.6508 -368.765 79.5873 1002.74 87.0407 42610
0.1995 0.199499 5885.79 28.4423 110.919 53.1054 1174.86 69.48 -363.052 79.3711 952.303 86.6861 43863
0.2005 0.200501 5862.31 28.1964 100.407 52.9676 1275.35 68.6848 -315.341 78.651 761.297 85.9928 43302
0.2015 0.201501 5796.67 27.7677 139.212 52.6048 1403.17 67.8301 -240.891 77.7234 662.901 84.9723 44487
0.2025 0.202497 5738.63 27.4009 118.759 52.605 1615.65 67.2959 -107.035 77.1567 531.354 84.3306 43759
0.2035 0.203491 5609.31 26.686 123.991 51.6376 1711.22 65.9106 -38.2429 75.5249 503.736 82.4832 45282
0.2045 0.204497 5540.98 26.2166 79.5406 50.5657 1640.24 64.3827 77.3089 73.8842 420.312 80.7915 45483
0.2055 0.205499 5525.16 26.039 18.7493 50.5079 1727.98 64.353 32.0982 73.7568 463.389 80.5578 46138
0.2065 0.206502 5528.35 25.8936 10.6331 49.8247 1600.01 63.3605 134.127 72.7773 378.149 79.64 46227
0.2075 0.207493 5558.21 25.9269 3.57074 50.1176 1683.81 63.7415 53.3702 73.1491 405.798 79.9812 46236
0.2085 0.208503 5569.38 25.8025 40.0267 49.2513 1475.71 62.9474 6.18284 72.2702 462.436 79.0904 48361
0.2095 0.209504 5450.94 25.1762 102.854 48.52 1613.5 61.1083 78.7171 70.4247 152.454 77.2514 46812
0.2105 0.210503 5449.89 24.9828 87.6889 47.2978 1315.88 60.3795 173.671 69.4609 381.666 76.1472 48813
0.2115 0.211497 5313.52 24.2491 62.9334 45.9192 1301.18 57.6322 163.48 66.7454 -4.23374 73.5005 47215
0.2125 0.21249 5414.49 24.551 14.8567 45.9011 1113.74 58.8633 240.827 67.7586 417.91 74.3556 50004
0.2135 0.213503 5269.72 23.7681 14.3005 44.1203 987.447 55.7407 241.412 64.6537 47.251 71.3079 49509
0.2145 0.214498 5290.74 23.7198 32.7398 43.4519 795.231 55.381 137.086 64.1741 168.119 70.7837 49660
0.2155 0.215501 5257.66 23.4543 48.0915 42.764 723.283 54.4776 115.383 63.2038 132.082 69.7784 50841
0.2165 0.216498 5166.2 22.9492 109.884 42.0634 784.366 53.5762 1.61875 62.0915 154.224 68.4924 50424
0.2175 0.217503 5120.69 22.6427 103.722 41.525 783.975 53.1244 -7.77382 61.4446 246.739 67.6984 52231
0.2185 0.218503 5083.22 22.3966 75.6005 41.5606 941.878 53.2077 -19.0475 61.3757 320.106 67.4719 51078
0.2195 0.219501 5030.61 22.0667 36.3009 40.9747 936.19 52.9127 62.2148 60.8129 500.344 66.702 52791
0.2205 0.220507 5063.87 22.1368 22.8336 41.4936 1069.65 53.8548 42.0224 61.6645 663.799 67.4375 52969
0.2215 0.2215 5092.34 22.1582 24.8624 41.2857 983.306 54.2341 190.033 61.8729 898.134 67.5412 52704
0.2225 0.222501 5007.41 21.7264 43.2147 41.0941 1174.61 53.8108 117.253 61.3117 900.441 66.7945 54051
0.2235 0.223499 5065.33 21.8649 50.9891 40.8111 992.298 54.2831 143.074 61.6122 1184.35 67.0415 53938
0.2245 0.224498 4987.83 21.4397 54.8252 40.1609 1026.87 53.3135 35.152 60.5225 1145.48 65.8417 54735
0.2255 0.225491 4980.28 21.3017 107.717 39.8637 1017.28 52.5836 1.94026 59.8479 996.404 65.2161 54774
0.2265 0.226499 4791.08 20.4108 144.826 38.2865 1010.76 50.4661 -174.512 57.4358 959.099 62.5683 56911
0.2275 0.227498 4696.18 19.9287 163.75 37.6219 1077.57 49.2805 -159.333 56.1622 844.757 61.1999 54879
0.2285 0.228491 4576.54 19.3319 113.601 36.5091 1057.52 47.6687 -143.039 54.3881 758.564 59.3096 57210
0.2295 0.229498 4556.36 19.1716 29.7042 36.4546 1146.78 47.1783 -43.0711 53.9455 609.527 58.8851 57375
0.2305 0.230496 4532.06 18.9496 14.8018 35.5348 971.095 45.5368 12.4389 52.3999 350.4 57.4846 57604
0.2315 0.231501 4524.54 18.8327 17.7238 35.2389 946.934 44.7589 88.0928 51.7122 173.063 56.8808 58629
0.2325 0.232502 4558.93 18.872 5.20098 34.8901 802.72 44.1721 32.4731 51.2305 63.4279 56.5144 58560
0.2335 0.233504 4509.44 18.594 28.8906 34.4981 838.566 43.6268 73.1295 50.5842 56.8642 55.7839 59305
0.2345 0.234497 4562.56 18.7276 10.8945 34.5677 786.102 43.3609 6.94502 50.5066 -111.152 55.8638 59196
0.2355 0.235493 4542.22 18.5631 -9.22344 34.2267 768.553 42.9681 71.901 50.0443 -100.464 55.3503 60063
0.2365 0.236499 4562.92 18.5717 26.2814 34.2643 780.217 42.9341 127.324 50.0393 -133.046 55.3654 61537
0.2375 0.237504 4578.4 18.5429 37.3516 34.0435 717.957 43.1155 -4.25311 50.0726 40.1702 55.2975 61224
0.2385 0.238501 4568.16 18.4279 69.4094 33.913 746.189 42.9319 -8.11908 49.8428 42.6865 55.0275 61221
0.2395 0.239494 4464.87 17.9527 120.678 33.3724 851.242 42.4787 -38.2593 49.0996 183.31 54.0388 62332
0.2405 0.240501 4447.86 17.7931 72.2833 32.7693 733.252 41.8077 -14.8943 48.3696 183.708 53.29 63447
0.2415 0.241505 4370.6 17.4225 21.346 32.3173 807.548 41.1407 29.2282 47.5715 171.892 52.3748 63342
0.2425 0.242503 4438.17 17.6075 29.766 32.4087 726.641 41.1159 -25.7793 47.6889 80.337 52.6193 63379
0.2435 0.243496 4393.92 17.369 -3.42701 32.1262 779.927 40.6001 74.6571 47.1192 31.405 51.9986 64266
0.2445 0.244495 4408.29 17.3456 27.8345 31.9434 725.616 40.8394 -38.3317 47.2082 219.173 51.9838 64695
0.2455 0.245496 4415.09 17.3112 23.1184 32.0701 799.615 40.8691 85.9093 47.2495 186.951 52.0174 65947
0.2465 0.2465 4402.02 17.1877 22.0986 31.7802 769.898 40.8838 132.678 47.1006 348.243 51.7482 66018
0.2475 0.2475 4396.99 17.0896 16.6561 31.3771 683.981 40.4861 173.185 46.65 369.147 51.2786 66303
0.2485 0.248496 4399.05 17.0361 31.3187 31.4003 727.342 40.8008 132.223 46.8404 515.926 51.3666 66958
0.2495 0.249492 4366.96 16.8345 60.2453 30.6635 580.419 40.2928 137.114 46.1445 657.015 50.5803 66975
0.2505 0.250489 4304.41 16.5338 86.6207 30.2679 629.369 39.7941 0.185265 45.5204 684.777 49.8452 68676
0.2515 0.2515 4275.14 16.3493 67.3 29.6384 513.555 39.2483 50.5207 44.8413 758.266 49.111 69349
0.2525 0.252499 4203.23 16.0134 75.7712 29.2596 594.615 38.3939 -24.2803 43.969 624.806 48.1845 68592
0.2535 0.253499 4220.94 16.0088 61.534 28.9802 493.556 38.1778 -2.22992 43.7241 649.313 47.9553 70437
0.2545 0.254501 4124.11 15.5802 68.3867 28.4085 564.877 36.7818 -60.9147 42.3764 374.416 46.6018 70099
0.2555 0.255501 4108.58 15.4684 81.4736 28.3545 620.525 36.765 -113.699 42.2884 422.121 46.4442 71064
0.2565 0.256503 4019.55 15.0764 85.0228 27.7241 643.625 35.6928 -87.2771 41.1513 308.94 45.2475 71409
0.2575 0.257506 4034.49 15.0826 61.851 27.8603 689.572 36.3221 -0.875017 41.6241 540.544 45.593 72612
0.2585 0.258506 3944.42 14.6828 35.5749 27.028 638.842 35.1018 91.5192 40.3153 448.75 44.2271 71845
0.2595 0.259496 4004.86 14.8618 28.5873 27.4604 684.574 35.9615 221.464 41.1384 612.647 45.0074 72816
0.2605 0.260498 3917.56 14.4693 41.7778 26.4288 548.629 34.7931 144.508 39.7958 633.487 43.58 73743
0.2615 0.261499 3921.92 14.4444 83.3354 26.5539 611.816 35.2141 122.892 40.1127 788.411 43.8026 74662
0.2625 0.262503 3821.75 14.0119 59.8018 25.4069 458.232 33.9393 106.939 38.6359 820.776 42.2318 74931
0.2635 0.263501 3790.55 13.8437 47.9907 24.9751 404.737 33.4999 102.687 38.1039 855.591 41.6537 75087
0.2645 0.264502 3780.15 13.7466 8.74806 24.4774 279.24 32.9724 121.928 37.5218 853.894 41.0825 76678
0.2655 0.265506 3769.89 13.6572 15.8461 24.2156 238.558 32.6968 123.451 37.1983 866.744 40.7414 76035
0.2665 0.266501 3753.29 13.5342 37.9009 23.7836 155.083 31.9112 89.279 36.4623 715.829 40.0544 77094
0.2675 0.267506 3715.78 13.347 61.9723 23.4203 140.301 31.3773 24.9552 35.8849 678.876 39.4432 78463
0.2685 0.268501 3669.29 13.1338 72.3867 22.9881 116.254 30.923 -69.8003 35.3198 719.564 38.8083 77076
0.2695 0.269497 3657.52 13.0411 60.3256 22.9121 149.795 30.6998 -51.1829 35.1004 676.842 38.5709 79149
0.2705 0.270499 3640.45 12.9348 27.6144 22.8674 205.275 30.6092 -116.202 34.9723 689.61 38.3926 79648
0.2715 0.271502 3649.85 12.9169 25.0833 22.7348 165.786 30.4156 -15.8398 34.7867 661.029 38.2255 80241
0.2725 0.272505 3644.87 12.8481 19.3002 22.6476 179.234 30.0945 -43.3629 34.5126 566.386 37.9669 80835
0.2735 0.2735 3665.58 12.8736 34.6666 22.6239 152.473 30.1125 9.03904 34.5284 579.256 37.9925 80680
0.2745 0.274504 3645.27 12.7505 54.5031 22.4106 152.208 29.5031 1.16015 33.9957 415.696 37.4919 82617
0.2755 0.275508 3585.32 12.4962 66.9758 21.9577 147.517 28.9468 -45.6503 33.3359 427.835 36.7551 82548
0.2765 0.276499 3538.86 12.2893 49.3526 21.718 196.312 28.4752 -9.05687 32.8342 370.49 36.2073 81181
0.2775 0.277489 3506.08 12.1317 54.7028 21.4445 196.627 28.096 -23.741 32.4061 358.004 35.7393 84096
0.2785 0.278498 3489 12.0316 59.5384 21.2859 203.33 28.0469 -23.0633 32.2617 439.291 35.531 85215
0.2795 0.279502 3458.69 11.886 62.6071 21.0947 228.886 27.7975 19.2489 31.9533 450.215 35.1704 84514
0.2805 0.280503 3414.34 11.698 76.4369 20.9368 298.455 27.668 34.8849 31.7129 520.466 34.8306 85815
0.2815 0.281501 3388.15 11.5722 64.5609 20.77 319.831 27.6153 11.7813 31.5538 615.076 34.5923 85485
0.2825 0.2825 3307.26 11.2539 47.71 20.1824 305.927 26.7756 20.7378 30.6272 566.597 33.5972 87220
0.2835 0.283504 3360.89 11.3992 48.6275 20.39 287.817 27.2493 -7.20894 31.0873 667.516 34.0653 87147
0.2845 0.284497 3288.19 11.1116 23.6324 19.9809 326.787 26.4942 51.1357 30.2975 567.325 33.2226 87102
0.2855 0.285498 3337.97 11.2439 5.87405 20.1928 319.765 26.9636 19.6582 30.7502 669.161 33.6765 88971
0.2865 0.286499 3313.16 11.1102 -17.8231 19.6815 203.955 26.0894 126.489 29.9242 503.463 32.9051 89434
0.2875 0.287501 3361.15 11.2303 -7.45564 19.7619 150.774 26.2792 93.2334 30.1383 524.584 33.1595 89619
0.2885 0.288499 3326.25 11.0703 -2.29309 19.1586 11.5171 25.4071 104.956 29.2745 408.316 32.3248 90240
0.2895 0.289501 3340.67 11.0793 32.98 19.2056 25.112 25.4557 6.82549 29.3265 410.472 32.3772 91333
0.2905 0.290505 3312.28 10.9486 71.9432 18.7423 -76.9803 24.8814 -70.5032 28.7222 372.615 31.7706 92139
0.2915 0.291506 3278.31 10.7989 78.9958 18.7963 57.6294 24.8534 -71.0619 28.64 390.349 31.6113 92370
0.2925 0.292502 3236.05 10.6222 72.4614 18.4759 50.3833 24.2379 -148.986 28.039 282.69 31.0013 91819
0.2935 0.293496 3241.83 10.6101 45.7565 18.8456 221.714 24.8366 -78.779 28.5443 427.49 31.4124 93552
0.2945 0.2945 3219.99 10.5055 60.2147 18.7528 260.714 24.7323 -54.022 28.3873 454.424 31.2066 94701
0.2955 0.295502 3208.31 10.4369 53.8437 18.8087 337.848 24.7937 -11.0644 28.4119 484.169 31.1828 95020
0.2965 0.296503 3175.1 10.2991 51.0432 18.6557 375.106 24.6646 64.6854 28.2026 537.95 30.9034 95151
0.2975 0.297498 3147.07 10.1726 54.0296 18.229 282.95 24.3047 130.69 27.7477 600.263 30.4092 95802
0.2985 0.2985 3105.74 10.0085 51.0275 17.7892 214.156 23.9637 152.331 27.2794 692.719 29.8772 97399
0.2995 0.299507 3062.41 9.82835 41.8704 17.0547 30.9882 23.0109 163.592 26.2929 598.528 28.917 97881
0.3005 0.300503 3022.07 9.66523 50.0356 16.6175 -35.7287 22.4748 66.9788 25.6967 580.78 28.2985 97188
0.3015 0.301497 2993.97 9.54079 51.8121 16.2951 -83.3853 21.9507 13.8912 25.1774 498.738 27.7821 98263
0.3025 0.302497 2978.59 9.4628 40.6548 15.9788 -162.983 21.608 -36.6773 24.799 492.582 27.4012 100050
0.3035 0.303506 2966.08 9.3897 49.4773 16.0364 -82.6932 21.5631 -110.976 24.7554 473.329 27.325 100779
0.3045 0.304505 2951.76 9.31135 42.1253 16.1164 12.4452 21.5397 -89.5165 24.7288 454.999 27.2621 99982
0.3055 0.305503 2947.15 9.26744 53.8397 16.252 107.025 21.6678 -17.5301 24.8371 477.703 27.3301 101559
0.3065 0.306497 2930.6 9.18978 61.1244 16.3298 202.693 21.7562 -17.1893 24.8831 518.534 27.3182 100935
0.3075 0.307498 2901.75 9.07554 64.1167 16.1665 217.644 21.7083 -12.143 24.734 618.643 27.0976 103762
0.3085 0.308502 2897.35 9.0342 31.5088 16.2294 278.936 21.696 100.89 24.7306 595.407 27.0751 102951
0.3095 0.309501 2874.69 8.93408 21.5804 15.7147 124.996 21.3133 80.0577 24.2351 682.011 26.5605 104394
0.3105 0.3105 2858.22 8.84924 -13.2679 15.4926 92.0686 20.8832 128.354 23.8312 585.296 26.1718 103963
0.3115 0.311497 2874.64 8.86545 13.6206 15.3531 16.1918 20.6008 40.9332 23.605 490.359 26.0006 105936
0.3125 0.3125 2860.55 8.79068 22.2348 15.1024 -40.5133 20.1427 28.7274 23.1826 387.226 25.6031 105717
0.3135 0.313498 2834.22 8.68387 54.3482 14.7768 -105.379 19.765 -51.9405 22.7644 378.413 25.1704 106776
0.3145 0.314504 2818.04 8.61207 59.3316 14.7708 -49.1528 19.9979 -18.3098 22.8646 544.237 25.1863 108733
0.3155 0.315499 2757.41 8.39576 34.4073 14.3853 -55.879 19.3166 3.81007 22.1741 437.088 24.4689 105891
0.3165 0.3165 2783.79 8.45441 56.1705 14.5476 -26.8651 19.7132 0.102762 22.5155 560.875 24.7827 111072
0.3175 0.317506 2752.78 8.3315 41.9697 14.466 32.8812 19.4715 33.8745 22.2678 514.716 24.5009 108121
0.3185 0.318499 2740.71 8.27519 71.3644 14.3915 44.2519 19.5296 -86.8537 22.2474 612.581 24.4316 110484
0.3195 0.319501 2703.35 8.13076 42.6338 14.2319 86.0562 19.0696 -85.2894 21.8192 486.808 23.9925 110817
0.3205 0.320498 2688.55 8.06142 37.944 14.218 136.041 18.9687 -108.909 21.7141 464.293 23.8641 111088
0.3215 0.321499 2691.03 8.03814 38.3471 14.0669 83.6403 18.5857 -87.7894 21.401 331.064 23.6017 112635
0.3225 0.322501 2682.3 7.99191 44.7881 14.3276 247.551 18.7456 -94.4587 21.5734 305.611 23.7386 113202
0.3235 0.323504 2659.6 7.89696 52.7485 13.9283 134.557 18.4259 -31.4428 21.1703 367.612 23.3086 113863
0.3245 0.324503 2663.37 7.88442 26.0207 14.022 190.184 18.4384 78.2643 21.2066 330.398 23.3432 114045
0.3255 0.325499 2660.93 7.85619 16.7356 13.9031 156.461 18.5221 106.972 21.2023 454.841 23.294 114828
0.3265 0.326503 2662.95 7.83634 -8.53822 13.8244 135.681 18.3077 174.196 21.027 379.328 23.1421 116431
0.3275 0.327504 2664.31 7.82094 24.0701 13.7897 132.026 18.5437 61.0813 21.1544 545.649 23.2134 116442
0.3285 0.328504 2654.19 7.76614 37.914 13.4323 6.93819 18.168 55.3462 20.7476 534.019 22.8228 116955
0.3295 0.329498 2630.9 7.67871 43.7982 13.4004 64.1625 18.1969 -5.40425 20.7091 607.838 22.7251 117028
0.3305 0.330497 2612.24 7.60132 33.8658 12.9663 -78.6386 17.7224 42.4754 20.1968 583.868 22.2306 119061
0.3315 0.331501 2601.2 7.54227 18.1388 12.9032 -61.1801 17.4914 71.5959 19.9979 505.28 22.0331 120060
0.3325 0.332504 2603.75 7.52871 31.4569 12.6142 -190.032 17.1369 51.6429 19.6574 447.007 21.7323 119737
0.3335 0.333501 2578.58 7.43462 30.2764 12.4412 -194.836 16.9438 26.787 19.4178 463.278 21.4628 120531
0.3345 0.3345 2548.52 7.3305 66.0356 12.1765 -235.136 16.6749 -70.6352 19.0899 485.479 21.1078 121704
0.3355 0.335503 2556.01 7.32845 47.3074 12.1513 -247.518 16.5917 -26.3292 19.0286 449.432 21.0581 122761
0.3365 0.336503 2511.46 7.17862 42.7231 12.0361 -177.141 16.4683 -15.2599 18.8233 505.623 20.7812 122472
0.3375 0.337499 2536.58 7.2303 25.0928 12.023 -227.691 16.4726 22.8262 18.849 491.186 20.836 122985
0.3385 0.338498 2522.31 7.16602 -1.72477 12.0267 -172.752 16.4141 89.019 18.7809 485.799 20.7392 125380
0.3395 0.339503 2528.97 7.16577 18.1383 11.9736 -198.435 16.4077 58.7288 18.7542 510.512 20.712 125223
0.3405 0.3405 2528.72 7.14146 38.4034 11.8648 -234.791 16.122 20.1492 18.5257 403.783 20.5118 125178
0.3415 0.341499 2517.56 7.0937 52.344 11.819 -213.712 16.2459 -16.2807 18.5528 528.459 20.4897 127059
0.3425 0.342503 2468.73 6.93354 57.5109 11.4918 -242.142 15.6756 4.09973 17.9883 422.619 19.9118 127957
0.3435 0.343498 2438.24 6.83165 53.956 11.2906 -252.856 15.5238 -17.2612 17.7565 483.021 19.6384 126732
0.3445 0.344497 2412.76 6.73931 30.6111 11.0646 -289.638 15.1117 31.6947 17.3679 388.785 19.2533 129639
0.3455 0.3455 2385.51 6.64543 39.2813 10.8539 -315.385 14.8224 5.34037 17.0569 364.155 18.9264 129826
0.3465 0.346504 2397.27 6.6663 36.5934 10.7752 -370.293 14.8968 40.6504 17.0782 439.344 18.9462 130875
0.3475 0.347502 2355.9 6.52938 27.9485 10.5836 -350.803 14.5437 33.4137 16.7136 387.463 18.5508 130686
0.3485 0.348502 2366.44 6.54531 30.2541 10.5857 -359.319 14.7399 5.09056 16.8352 502.781 18.6536 132211
0.3495 0.349504 2380.99 6.56581 17.1566 10.6025 -371.734 14.7058 72.3139 16.8358 462.687 18.6703 132768
0.3505 0.350503 2375.84 6.53481 26.3406 10.6452 -319.948 14.9033 6.89395 16.9497 585.417 18.7398 132957
0.3515 0.351501 2371.39 6.49836 27.6493 10.5826 -325.034 14.6232 -71.1118 16.7404 459.988 18.5479 133987
0.3525 0.352498 2372.71 6.48606 51.6034 10.7357 -233.975 14.9862 -49.8782 17.0124 621.56 18.7624 134778
0.3535 0.353498 2335.04 6.36651 63.1297 10.4232 -288.703 14.5444 -59.5785 16.551 565.279 18.2915 135699
0.3545 0.354501 2302.62 6.25958 54.1322 10.3921 -211.347 14.5261 -7.47945 16.4695 627.331 18.1497 137380
0.3555 0.355501 2288.35 6.20436 47.3213 10.1077 -309.151 14.1026 19.873 16.0655 532.586 17.7716 136161
0.3565 0.356499 2257.2 6.0946 42.7338 10.1059 -216.735 13.9293 56.0906 15.9026 480.484 17.5697 138792
0.3575 0.3575 2232.43 6.02032 50.4328 9.75739 -327.406 13.6191 -26.4075 15.5292 504.062 17.1934 138097
0.3585 0.358498 2222.04 5.97129 61.5122 9.81816 -254.134 13.6447 -32.4734 15.5433 517.179 17.1759 140028
0.3595 0.359503 2184.07 5.85454 66.8489 9.59658 -264.773 13.3404 -100.65 15.2058 500.581 16.8108 141099
0.3605 0.360505 2165.81 5.78555 58.0636 9.55486 -226.634 13.2254 -30.0663 15.081 484.76 16.6627 140821
0.3615 0.361502 2140.38 5.70044 35.0802 9.43934 -210.986 13.0469 -22.0787 14.8793 475.736 16.4358 141756
0.3625 0.362504 2116.17 5.61741 45.131 9.26176 -232.621 12.6643 -20.7872 14.5326 365.34 16.0949 142971
0.3635 0.363499 2120.03 5.61152 31.3 9.28974 -212.929 12.7122 32.747 14.569 385.283 16.1212 142270
0.3645 0.3645 2095.2 5.53133 47.0876 9.11475 -233.157 12.4592 -23.068 14.3013 357.218 15.8412 145311
0.3655 0.365503 2068.65 5.44276 39.5167 9.0055 -213.466 12.1708 -34.9897 14.0363 274.639 15.5673 145434
0.3665 0.366501 2064.91 5.42072 34.2973 8.97245 -208.053 12.2652 -30.8071 14.0643 366.797 15.5661 144547
0.3675 0.367496 2059.52 5.38742 15.9265 8.95002 -193.888 12.0508 13.3974 13.9103 255.883 15.4271 146892
0.3685 0.368499 2081.09 5.43347 7.51058 8.96453 -226.129 12.2319 52.8188 14.0493 343.728 15.5632 148113
0.3695 0.369499 2085.93 5.42808 7.49442 8.98524 -214.278 12.1051 65.9314 13.9815 252.353 15.5138 147387
0.3705 0.370498 2115.54 5.49643 15.905 8.9933 -269.523 12.3292 30.4952 14.1544 360.555 15.6904 149758
0.3715 0.371501 2092.09 5.42166 35.0465 8.84344 -282.625 12.1086 49.8902 13.9202 335.648 15.4423 150099
0.3725 0.3725 2078.43 5.37684 35.1059 8.66582 -335.462 11.9582 9.79018 13.7316 356.208 15.2461 150468
0.3735 0.373498 2091.18 5.39984 31.6797 8.63639 -371.464 12.0118 23.4319 13.7628 395.208 15.2822 150709
0.3745 0.374497 2065.77 5.31855 35.4403 8.49179 -378.456 11.7149 15.3403 13.4849 319.706 14.9973 153108
0.3755 0.375501 2068.84 5.31126 34.3568 8.53545 -345.956 11.8283 -8.199 13.5623 378.775 15.0556 153189
0.3765 0.376499 2031.22 5.20609 43.4951 8.27548 -388.394 11.5381 -4.53084 13.2227 382.253 14.6929 153547
0.3775 0.377499 2020.99 5.16343 55.7026 8.28804 -342.083 11.5494 12.8263 13.2088 409.513 14.6534 155424
0.3785 0.378502 2004.36 5.11303 33.9762 8.13123 -378.228 11.4403 54.0396 13.0486 449.193 14.4781 155313
0.3795 0.379499 1967.06 5.00631 46.3507 7.93049 -388.436 11.1687 44.9484 12.7439 434.75 14.148 156100
0.3805 0.3805 1986.82 5.04223 22.5889 8.0325 -365.538 11.341 33.3877 12.9071 479.307 14.3095 157557
0.3815 0.381498 1948.69 4.9361 43.6692 7.77006 -410.851 10.9716 -10.3664 12.5204 429.735 13.9103 157692
0.3825 0.382501 1941.17 4.90728 36.7633 7.71134 -413.978 10.9705 3.19161 12.476 479.257 13.8504 159703
0.3835 0.383505 1926.22 4.85795 35.7225 7.60503 -426.962 10.8204 -0.822399 12.3155 463.107 13.6812 160338
0.3845 0.384506 1918.31 4.83018 24.5358 7.48555 -466.57 10.6989 11.3097 12.1778 459.586 13.5437 160167
0.3855 0.3855 1917.96 4.81532 32.3078 7.478 -458.743 10.6623 9.13931 12.1454 448.592 13.5072 160033
0.3865 0.386496 1905.66 4.77347 12.3116 7.41044 -455.533 10.608 32.2606 12.0596 474.288 13.4053 162444
0.3875 0.387502 1915.89 4.78887 37.4937 7.38688 -485.575 10.566 -26.8788 12.0354 448.33 13.3948 164307
0.3885 0.388504 1919.38 4.78372 36.6202 7.4377 -451.421 10.6724 -4.39228 12.1133 501.714 13.4572 163882
0.3895 0.389505 1886.37 4.68731 47.3647 7.29449 -442.023 10.4037 -46.9613 11.8433 451.581 13.1657 164595
0.3905 0.390501 1903.45 4.71609 43.1378 7.37472 -425.499 10.5194 -45.4382 11.9606 473.436 13.2846 165006
0.3915 0.391501 1875.73 4.62828 35.0302 7.36738 -347.106 10.4363 -26.9858 11.8597 475.281 13.1439 166687
0.3925 0.392501 1871.37 4.60854 37.1353 7.26814 -384.745 10.313 -16.7995 11.7342 455.205 13.0233 167256
0.3935 0.393501 1867.24 4.582 35.7534 7.28613 -351.92 10.2612 -1.21741 11.6978 425.971 12.9781 167937
0.3945 0.394496 1852.62 4.5363 29.1425 7.21687 -345.64 10.2171 21.0559 11.6155 462.647 12.8756 167719
0.3955 0.395497 1839.24 4.49395 41.8756 7.08882 -378.864 10.0233 9.33336 11.4246 422.138 12.6856 171636
0.3965 0.396504 1824.07 4.45229 36.308 6.97737 -397.717 10.003 25.746 11.3381 497.139 12.5798 171093
0.3975 0.3975 1808.5 4.40088 29.5813 6.88058 -406.011 9.79032 -4.44335 11.1461 430.996 12.3848 170464
0.3985 0.398498 1822.57 4.43224 36.3198 6.8537 -448.981 9.88727 23.2868 11.2053 496.217 12.4516 172113
0.3995 0.399495 1800.59 4.36336 39.7294 6.79039 -420.519 9.72115 -33.5639 11.0445 457.634 12.2716 173232
